#WAVELENGTH FLUX ERROR MASK
       10243.614       2248.2768       2606.8646       0
       10266.944      -1401.5798       2280.2261       0
       10290.274       360.93571       1908.1936       0
       10313.604      -622.84425       1732.4552       0
       10336.934       706.43999       1488.4000       0
       10360.264      -731.14647       1399.4956       0
       10383.594       590.10973       1264.7322       0
       10406.925       730.09524       1160.9387       0
       10430.255       850.54465       1019.5937       0
       10453.585       296.71272       892.08063       0
       10476.915       176.01513       743.38321       0
       10500.245       154.20425       648.62939       0
       10523.575       181.96274       527.50699       0
       10546.905       247.53967       462.63480       0
       10570.235       197.92218       395.66896       0
       10593.565      -16.265022       354.97820       0
       10616.895       236.24770       315.31621       0
       10640.226       177.68953       288.94252       0
       10663.556       52.915059       219.24746       0
       10686.886       252.44225       225.66639       0
       10710.216       212.89704       165.22531       0
       10733.546       255.46595       161.62005       0
       10756.876       153.24800       130.33030       0
       10780.206       131.75047       111.48988       0
       10803.536       182.39261       92.463887       0
       10826.866       166.23063       80.946098       0
       10850.196       114.09082       69.708808       0
       10873.526       123.44173       64.551845       0
       10896.857       125.42124       58.091805       0
       10920.187       151.99905       56.111102       0
       10943.517       86.302900       50.762151       0
       10966.847       141.36945       47.539521       0
       10990.177       89.092008       43.315638       0
       11013.507       135.97386       42.602868       1
       11036.837       85.667267       37.936852       1
       11060.167       91.409297       36.399276       1
       11083.497       121.73525       33.928289       1
       11106.827       134.04432       33.987764       1
       11130.158       81.931524       31.251057       1
       11153.488       82.200632       30.226578       1
       11176.818       75.726911       29.758973       1
       11200.148       101.00153       29.323887       1
       11223.478       93.705284       29.136711       1
       11246.808       117.00161       28.796837       1
       11270.138       87.844408       28.528277       1
       11293.468       70.527289       28.431490       1
       11316.798       103.25892       28.165984       1
       11340.128       65.674891       27.816480       1
       11363.459       109.89257       27.582867       1
       11386.789       93.414595       26.940903       1
       11410.119       89.165324       29.681002       1
       11433.449       100.81574       26.547030       1
       11456.779       98.482354       26.578748       1
       11480.109       105.01172       26.248745       1
       11503.439       107.65639       26.538729       1
       11526.769       92.522365       10610103.       1
       11550.099       115.45144       26.453811       1
       11573.429       102.41301       25.859031       1
       11596.760       115.70835       26.030839       1
       11620.090       100.18778       25.497295       1
       11643.420       111.57813       25.695007       1
       11666.750       138.49373       25.998135       1
       11690.080       95.101312       24.955505       1
       11713.410       105.97881       24.392675       1
       11736.740       104.17559       24.539694       1
       11760.070       106.47018       24.044823       1
       11783.400       111.71390       23.897045       1
       11806.730       94.120022       23.265362       1
       11830.060       92.092698       23.390329       1
       11853.391       142.92896       24.017536       1
       11876.721       101.41850       23.151112       1
       11900.051       125.83304       22.838649       1
       11923.381       108.13401       22.793912       1
       11946.711       74.716022       22.512309       1
       11970.041       110.11905       22.437910       1
       11993.371       115.62714       22.037887       1
       12016.701       122.67560       22.360891       1
       12040.031       104.64853       23.781701       1
       12063.361       97.926979       21.695776       1
       12086.692       111.72407       21.449897       1
       12110.022       83.024229       21.480337       1
       12133.352       102.78453       21.644066       1
       12156.682       108.26152       21.336987       1
       12180.012       112.80609       21.549768       1
       12203.342       104.46662       21.183136       1
       12226.672       87.009070       21.270775       1
       12250.002       93.386591       20.771056       1
       12273.332       72.439484       20.964922       1
       12296.662       98.408585       20.374322       1
       12319.993       66.770206       20.574343       1
       12343.323       101.76258       20.214314       1
       12366.653       110.11425       21.268901       1
       12389.983       100.37280       19.881906       1
       12413.313       103.01561       20.621576       1
       12436.643       88.604980       19.533844       1
       12459.973       88.966558       19.900278       1
       12483.303       96.605037       19.622053       1
       12506.633       103.10217       20.302933       1
       12529.963       103.55384       19.447970       1
       12553.294       83.648536       19.860144       1
       12576.624       85.697455       19.232210       1
       12599.954       95.997506       19.867565       1
       12623.284       101.65807       19.193918       1
       12646.614       92.623854       19.824036       1
       12669.944       98.895213       19.128270       1
       12693.274       68.908994       19.402048       1
       12716.604       82.969488       18.633124       1
       12739.934       67.896533       19.415453       1
       12763.264       96.134098       18.593936       1
       12786.594       98.784698       18.765632       1
       12809.925       98.851661       18.381632       1
       12833.255       113.65486       19.433411       1
       12856.585       96.611909       18.172771       1
       12879.915       93.455199       18.543901       1
       12903.245       90.629489       18.069376       1
       12926.575       101.24385       18.447135       1
       12949.905       94.030626       17.883794       1
       12973.235       82.614711       17.987311       1
       12996.565       98.813295       17.746214       1
       13019.895       66.992073       17.923142       1
       13043.226       95.465582       17.491736       1
       13066.556       113.86842       18.339052       1
       13089.886       97.793940       17.350978       1
       13113.216       77.967055       17.658663       1
       13136.546       92.034289       17.115743       1
       13159.876       78.378324       17.424978       1
       13183.206       93.215502       16.840998       1
       13206.536       94.506406       17.069270       1
       13229.866       109.63065       17.026827       1
       13253.196       98.763827       17.124901       1
       13276.527       103.42746       16.732520       1
       13299.857       116.83220       17.775432       1
       13323.187       82.535225       16.327457       1
       13346.517       83.158144       17.014163       1
       13369.847       74.944683       16.451511       1
       13393.177       109.49855       17.671623       1
       13416.507       82.773325       16.343709       1
       13439.837       86.642634       12.743527       1
       13463.167       93.109737       16.048205       1
       13486.497       67.785382       16.724987       1
       13509.828       100.86684       15.904786       1
       13533.158       91.438397       16.970144       1
       13556.488       97.840247       15.884060       1
       13579.818       115.51016       16.763382       1
       13603.148       112.32046       16.005090       1
       13626.478       126.52444       17.246098       1
       13649.808       102.53354       15.956503       1
       13673.138       85.406544       17.189729       1
       13696.468       120.24090       16.108532       1
       13719.798       94.219133       16.907375       1
       13743.128       123.43412       16.167024       1
       13766.459       102.96387       16.707444       1
       13789.789       107.78668       16.023850       1
       13813.119       121.88725       17.322323       1
       13836.449       74.457748       13.322155       1
       13859.779       96.671944       16.591359       1
       13883.109       107.98501       15.882869       1
       13906.439       111.56501       16.709220       1
       13929.769       96.105762       15.597523       1
       13953.099       95.083032       16.363382       1
       13976.429       104.81036       15.702700       1
       13999.760       63.012514       16.398571       1
       14023.090       111.08625       15.660526       1
       14046.420       97.693657       16.267216       1
       14069.750       67.941513       12.766658       1
       14093.080       109.73091       16.142465       1
       14116.410       95.274454       15.186337       1
       14139.740       102.05342       16.423203       1
       14163.070       100.55827       15.218187       1
       14186.400       24.288768       8.3937708       1
       14209.730       101.19190       15.237560       1
       14233.061       55.806601       12.631817       1
       14256.391       93.587421       14.981407       1
       14279.721       95.744332       15.710454       1
       14303.051       87.277984       14.798401       1
       14326.381       101.40396       15.596070       1
       14349.711       93.019590       14.764160       1
       14373.041       51.193442       15.757715       1
       14396.371       80.012806       14.587846       1
       14419.701       119.51505       15.933258       1
       14443.031       88.051872       14.751135       1
       14466.362       83.709617       15.083394       1
       14489.692       78.623647       14.751098       1
       14513.022       90.935342       15.442454       1
       14536.352       94.178115       14.899104       1
       14559.682       91.503433       15.037434       1
       14583.012       85.689615       14.624736       1
       14606.342       93.148257       15.134891       1
       14629.672       66.243758       12.917204       1
       14653.002       81.578773       14.939406       1
       14676.332       88.261370       14.833501       1
       14699.663       82.735213       15.298900       1
       14722.993       84.886850       14.741416       1
       14746.323       79.942309       15.020945       1
       14769.653       93.253219       14.918297       1
       14792.983       64.047373       15.063875       1
       14816.313       74.777232       14.657912       1
       14839.643       84.445699       15.323799       1
       14862.973       76.742757       14.597205       1
       14886.303       84.966747       14.919871       1
       14909.633       84.800853       14.620041       1
       14932.963       81.348544       14.751542       1
       14956.294       99.572175       14.663989       1
       14979.624       88.632332       14.733650       1
       15002.954       79.631609       14.389585       1
       15026.284       88.894253       14.728661       1
       15049.614       92.391165       14.497966       1
       15072.944       91.339358       14.909971       1
       15096.274       82.826664       14.361985       1
       15119.604       92.763382       14.728212       1
       15142.934       87.396578       14.412154       1
       15166.264       86.627442       14.532587       1
       15189.595       87.250906       14.347820       1
       15212.925       59.802833       13.006908       1
       15236.255       85.305773       14.250204       1
       15259.585       85.492882       14.467308       1
       15282.915       88.582448       14.281879       1
       15306.245       99.118285       14.896175       1
       15329.575       95.132573       14.265455       1
       15352.905       82.367507       14.553571       1
       15376.235       93.312914       14.315585       1
       15399.565       78.802997       14.480412       1
       15422.896       95.406950       14.386225       1
       15446.226       89.109780       14.656000       1
       15469.556       85.183815       14.365880       1
       15492.886       90.279730       15.153636       1
       15516.216       77.395991       14.272413       1
       15539.546       85.848595       14.367348       1
       15562.876       80.077643       14.452359       1
       15586.206       90.922727       14.371952       1
       15609.536       74.789248       14.427949       1
       15632.866       86.897184       14.319110       1
       15656.197       95.686806       14.595916       1
       15679.527       80.436697       13.970912       1
       15702.857       80.774631       14.422047       1
       15726.187       69.395152       14.339460       1
       15749.517       87.037376       14.374091       1
       15772.847       73.584564       14.008491       1
       15796.177       82.981656       14.273930       1
       15819.507       90.771441       14.295717       1
       15842.837       77.003164       14.221794       1
       15866.167       83.603693       14.060614       1
       15889.497       79.526724       15.578835       1
       15912.828       51.035755       14.146898       1
       15936.158       79.757057       15.614668       1
       15959.488       84.239801       14.242271       1
       15982.818       83.804931       14.399431       1
       16006.148       76.261543       14.196128       1
       16029.478       75.143836       14.250929       1
       16052.808       76.504939       14.163033       1
       16076.138       73.543086       14.354725       1
       16099.468       88.201114       14.678808       1
       16122.798       92.862625       14.615768       1
       16146.129       90.893562       14.363764       1
       16169.459       73.578814       14.455324       1
       16192.789       87.616783       15.297944       1
       16216.119       76.034764       14.612483       1
       16239.449       91.331295       15.002075       1
       16262.779       78.212450       14.726170       1
       16286.109       72.341229       14.476764       1
       16309.439       85.885090       14.888161       1
       16332.769       85.830758       14.676232       1
       16356.099       77.087822       14.849949       1
       16379.430       73.446457       14.636089       1
       16402.760       81.229076       14.937299       1
       16426.090       82.463316       14.743291       1
       16449.420       83.375565       5948833.1       1
       16472.750       77.884404       14.834257       1
       16496.080       81.802151       15.214083       1
       16519.410       69.036529       15.125348       1
       16542.740       86.546634       15.931177       1
       16566.070       65.549510       16.397817       1
       16589.400       73.475689       17.043909       1
       16612.731       82.540267       17.855974       1
       16636.061       78.276899       19.050246       1
       16659.391       68.548208       20.844383       1
       16682.721       67.720020       22.351535       1
       16706.051       72.426637       26.059208       1
       16729.381       60.202987       27.325445       1
       16752.711       56.504516       32.158467       0
       16776.041       74.393656       35.389475       0
       16799.371       68.673365       41.100320       0
       16822.701       126.56505       46.523577       0
       16846.031       86.819227       53.342552       0
       16869.362       118.16559       59.072552       0
       16892.692       160.43483       69.156437       0
       16916.022       77.655357       72.345352       0
       16939.352       115.88138       83.841036       0
       16962.682       38.172882       91.062925       0
       16986.012      -95.137782       93.996057       0
       17009.342       89.810718       114.54130       0
       17032.672       48.941085       129.74923       0
       17056.002       71.292771       140.92664       0
       17079.332       183.71616       161.57272       0
       17102.663       166.20904       176.24864       0
       17125.993       169.19728       206.58411       0
       17149.323       70.340696       226.56679       0
       17172.653       75.244989       271.79286       0
       17195.983      -59.931178       300.36061       0
       17219.313       380.85654       356.27167       0
       17242.643      -219.80777       388.55067       0
       17265.973       442.13919       461.02293       0
       17289.303       222.63200       492.50725       0
       17312.633      -317.87462       562.12269       0
       17335.964       123.60290       597.82443       0
       17359.294       131.23377       574.14016       0
       17382.624       344.89417       747.68399       0
       17405.954      -340.45653       833.47542       0
       17429.284       551.78576       896.87117       0
       17452.614       652.36661       1012.8240       0
       17475.944       437.69259       983.77496       0
       17499.274       1023.4815       1350.4946       0
