#WAVELENGTH FLUX ERROR MASK
       10198.743       1309.6594       4401.7796       0
       10221.406       2865.0482       3952.1185       0
       10244.069       815.38655       3344.6965       0
       10266.732       1046.1434       2898.8718       0
       10289.396      -440.63345   6.2081140e+08       0
       10312.059      -933.24862       1950.7225       0
       10334.722     -0.90748691       1948.9801       0
       10357.385       377.50856       1785.7837       0
       10380.048       1085.8530       1632.4947       0
       10402.712       813.91277       1506.2790       0
       10425.375      -590.78050       1332.6055       0
       10448.038       794.02283       1186.8581       0
       10470.701       345.92387       1007.9637       0
       10493.365       174.21493       859.02697       0
       10516.028       797.45253       723.38581       0
       10538.691       111.50301       625.80922       0
       10561.354       137.72615       534.48176       0
       10584.017       256.07951       476.61434       0
       10606.681       73.131793       422.39391       0
       10629.344      0.65712350       384.89296       0
       10652.007       210.30479       344.43527       0
       10674.670       238.80899       309.83453       0
       10697.334       206.58713       265.04098       0
       10719.997       98.912895       227.81576       0
       10742.660       260.69454       188.52501       0
       10765.323       215.97259       159.74102       0
       10787.986       109.60597       131.62518       0
       10810.650       206.59689       114.75182       0
       10833.313       174.91520       98.280986       0
       10855.976       147.90840       88.437778       0
       10878.639       103.64471       78.938850       0
       10901.303       98.902572       73.721438       0
       10923.966       40.907165       67.330747       0
       10946.629       105.97853       64.323545       0
       10969.292       99.657588       59.161803       0
       10991.956       112.70308       56.102867       0
       11014.619       99.874098       51.585386       1
       11037.282       144.99976       49.558072       1
       11059.945       64.967909       45.228908       1
       11082.608       110.24533       43.933999       1
       11105.272       105.38283       41.261506       1
       11127.935       101.31497       40.365955       1
       11150.598       99.007565       38.440618       1
       11173.261       94.742606       38.318179       1
       11195.925       97.857745       37.127787       1
       11218.588       132.02552       37.950692       1
       11241.251       45.837000       32.346411       1
       11263.914       120.12016       36.632529       1
       11286.577       115.59084       35.896365       1
       11309.241       95.602246       35.712191       1
       11331.904       108.34980       35.117569       1
       11354.567       106.75328       35.155635       1
       11377.230       94.684915       34.683057       1
       11399.894       83.460832       33.894273       1
       11422.557       99.175879       33.603189       1
       11445.220       88.999098       33.927812       1
       11467.883       117.82613       33.647467       1
       11490.546       37.083600       28.389158       1
       11513.210       132.78875       33.880623       1
       11535.873       112.75200       33.644781       1
       11558.536       115.17838       33.028462       1
       11581.199       55.624717       32.709192       1
       11603.863       127.51875       32.670299       1
       11626.526       98.904268       32.905200       1
       11649.189       95.807386       31.902045       1
       11671.852       125.41728       32.572087       1
       11694.515       73.679118       27.289594       1
       11717.179       123.17231       31.680581       1
       11739.842       68.877883       30.319582       1
       11762.505       115.58623       30.701959       1
       11785.168       138.74446       30.174208       1
       11807.832       69.572040       29.671728       1
       11830.495       104.58545       29.353850       1
       11853.158       46.754601       25.123660       1
       11875.821       93.592064       28.732951       1
       11898.484       64.817803       24.882802       1
       11921.148       68.523265       24.887464       1
       11943.811       98.788899       28.862425       1
       11966.474       102.65619       28.011720       1
       11989.137       102.22534       28.527488       1
       12011.801       96.919669       27.698806       1
       12034.464       99.380935       27.901965       1
       12057.127       80.939566       27.033791       1
       12079.790       114.37566       27.916698       1
       12102.453       110.16030       26.949714       1
       12125.117       97.669896       27.242881       1
       12147.780       69.221172       26.358877       1
       12170.443       108.77903       26.916793       1
       12193.106       94.772146       26.319171       1
       12215.770       43.547131       23.378523       1
       12238.433       60.447854       25.718021       1
       12261.096       59.872411       23.054844       1
       12283.759       57.521138       22.282270       1
       12306.422       100.67587       26.975871       1
       12329.086       89.828264       25.150487       1
       12351.749       99.407744       25.932106       1
       12374.412       70.354216       21.705765       1
       12397.075       102.49795       25.546146       1
       12419.739       86.515841       24.762399       1
       12442.402       88.469784       25.271786       1
       12465.065       89.914402       24.756863       1
       12487.728       95.902645       25.206428       1
       12510.391       95.170195       6676898.1       1
       12533.055       90.039599       24.865636       1
       12555.718       118.58719       24.643795       1
       12578.381       91.554210       24.826765       1
       12601.044       94.976803       24.312265       1
       12623.708       101.56364       24.893118       1
       12646.371       71.183000       21.022115       1
       12669.034       91.845748       24.599421       1
       12691.697       51.322337       20.688948       1
       12714.360       101.21711       24.405616       1
       12737.024       102.44876       23.577102       1
       12759.687       92.077375       24.062720       1
       12782.350       92.845961       23.274300       1
       12805.013       109.72155       23.835992       1
       12827.677       78.788899       22.932538       1
       12850.340       91.182977       23.461134       1
       12873.003       101.65038       22.987771       1
       12895.666       70.728486       23.142536       1
       12918.329       91.712286       22.770830       1
       12940.993       101.88053       23.325002       1
       12963.656       105.90137       22.636216       1
       12986.319       87.245188       22.887271       1
       13008.982       96.083243       22.179476       1
       13031.646       87.136138       22.761656       1
       13054.309       92.797147       21.957666       1
       13076.972       87.457041       22.667742       1
       13099.635       94.448621       21.745616       1
       13122.298       94.747639       22.451749       1
       13144.962       95.259724       21.404554       1
       13167.625       100.05740       22.290428       1
       13190.288       98.279555       21.336606       1
       13212.951       106.17732       21.957441       1
       13235.615       60.751774       18.825629       1
       13258.278       117.33610       21.952373       1
       13280.941       113.76585       21.020494       1
       13303.604       97.587590       21.590166       1
       13326.267       101.72072       20.698938       1
       13348.931       97.557932       21.471970       1
       13371.594       107.41079       20.890016       1
       13394.257       82.052825       21.255716       1
       13416.920       98.708229       20.614219       1
       13439.584       76.322768       20.921670       1
       13462.247       101.91322       20.320773       1
       13484.910       89.379978       20.773073       1
       13507.573       105.65180       20.203089       1
       13530.236       93.470749       20.713060       1
       13552.900       98.806092       20.138013       1
       13575.563       94.319545       20.622385       1
       13598.226       93.966141       20.029022       1
       13620.889       106.89194       20.787970       1
       13643.553       111.85925       20.101608       1
       13666.216       113.54559       20.748969       1
       13688.879       116.83744       20.171909       1
       13711.542       110.33659       20.741629       1
       13734.205       113.21442       20.106767       1
       13756.869       100.25325       20.623673       1
       13779.532       109.26591       20.014495       1
       13802.195       91.625946       20.595592       1
       13824.858       101.50941       19.872864       1
       13847.522       97.031401       20.584233       1
       13870.185       91.178828       19.820937       1
       13892.848       99.589187       20.501375       1
       13915.511       92.088467       19.802118       1
       13938.174       93.338560       20.364585       1
       13960.838       101.59545       19.726592       1
       13983.501       93.493252       20.174037       1
       14006.164       83.302267       19.437381       1
       14028.827       93.432993       19.988478       1
       14051.491       100.74802       19.363011       1
       14074.154       78.549918       19.725793       1
       14096.817       81.614204       19.039215       1
       14119.480       74.414252       19.544806       1
       14142.143       87.380864       19.028971       1
       14164.807       81.634902       19.454684       1
       14187.470       105.88909       19.071755       1
       14210.133       84.999205       19.487217       1
       14232.796       90.383153       18.866642       1
       14255.460       70.538657       19.086064       1
       14278.123       47.899529       14.312545       1
       14300.786       68.542862       19.052648       1
       14323.449       72.763164       16.513713       1
       14346.112       86.796852       19.109624       1
       14368.776       90.981690       18.365458       1
       14391.439       78.412289       18.941163       1
       14414.102       79.756218       18.386129       1
       14436.765       87.498948       18.964725       1
       14459.429       95.403011       18.441559       1
       14482.092       78.693901       18.840110       1
       14504.755       77.533838       18.290607       1
       14527.418       95.744308       18.824612       1
       14550.081       82.993685       18.262216       1
       14572.745       68.556937       18.495805       1
       14595.408       70.146839       18.220071       1
       14618.071       68.266490       18.613973       1
       14640.734       78.211936       18.257087       1
       14663.398       89.837834       18.779306       1
       14686.061       87.805741       18.328986       1
       14708.724       57.368491       16.357876       1
       14731.387       89.962033       18.337998       1
       14754.050       62.864159       18.587378       1
       14776.714       67.797792       18.200170       1
       14799.377       87.190180       18.768359       1
       14822.040       82.965451       18.299768       1
       14844.703       71.807082       18.361800       1
       14867.367       70.906163       18.086324       1
       14890.030       86.026467       18.549710       1
       14912.693       75.862335       18.048998       1
       14935.356       69.211605       18.242736       1
       14958.019       71.705704       17.837908       1
       14980.683       86.852050       17.880694       1
       15003.346       60.348398       17.635181       1
       15026.009       88.315449       18.191722       1
       15048.672       71.701904       17.729494       1
       15071.336       83.161323       19.011938       1
       15093.999       67.380591       17.705318       1
       15116.662       83.119655       18.107801       1
       15139.325       82.903463       17.726012       1
       15161.989       82.324607       18.112560       1
       15184.652       69.664754       17.627742       1
       15207.315       85.676012       18.121079       1
       15229.978       82.647282       17.633686       1
       15252.641       69.790471       17.914083       1
       15275.305       82.794320       17.627320       1
       15297.968       69.600218       17.902933       1
       15320.631       78.217415       17.515727       1
       15343.294       88.368460       18.124145       1
       15365.958       77.057550       17.579219       1
       15388.621       79.996753       18.107318       1
       15411.284       76.453819       17.622364       1
       15433.947       89.657041       18.161819       1
       15456.610       70.705707       17.573409       1
       15479.274       54.771936       17.749227       1
       15501.937       55.554715       17.422888       1
       15524.600       72.200155       18.042356       1
       15547.263       75.432239       17.662005       1
       15569.927       68.942467       18.055761       1
       15592.590       91.589253       17.760545       1
       15615.253       64.317329       18.052640       1
       15637.916       84.582524       17.762897       1
       15660.579       72.056781       18.045864       1
       15683.243       79.457729       17.582049       1
       15705.906       78.628248       17.762543       1
       15728.569       77.896920       17.583611       1
       15751.232       91.341779       17.980887       1
       15773.896       68.284584       17.333567       1
       15796.559       78.173200       17.857163       1
       15819.222       71.632580       17.419223       1
       15841.885       76.419819       17.897595       1
       15864.548       70.101658       17.429043       1
       15887.212       53.822972       17.618747       1
       15909.875       73.212675       17.579417       1
       15932.538       66.410642       17.880705       1
       15955.201       77.765230       17.579525       1
       15977.865       78.134280       18.008368       1
       16000.528       72.935693       17.521238       1
       16023.191       75.430017       17.816550       1
       16045.854       73.512770       17.571851       1
       16068.517       80.168067       17.880385       1
       16091.181       64.280866       17.541605       1
       16113.844       66.597275       17.773621       1
       16136.507       68.557423       17.544602       1
       16159.170       74.790196       17.887330       1
       16181.834       75.658064       17.821297       1
       16204.497       68.793374       18.077808       1
       16227.160       72.239764       17.929752       1
       16249.823       67.280466       18.237792       1
       16272.486       53.948852       17.810105       1
       16295.150       61.101508       18.185445       1
       16317.813       62.696458       18.028300       1
       16340.476       64.965665       18.294266       1
       16363.139       68.689866       18.147751       1
       16385.803       53.592320       18.205520       1
       16408.466       69.775095       18.195636       1
       16431.129       60.272768       18.263824       1
       16453.792       62.027712       18.274343       1
       16476.455       61.699901       18.542395       1
       16499.119       63.884614       18.959511       1
       16521.782       63.714013       19.120484       1
       16544.445       67.682523       19.701416       1
       16567.108       48.577848       20.232898       1
       16589.772       73.193667       21.186022       1
       16612.435       55.090778       22.692164       1
       16635.098       70.487510       23.964718       1
       16657.761       62.790481       26.242575       1
       16680.424       71.470045       28.310085       1
       16703.088       54.210328       31.584216       1
       16725.751       40.995550       34.588770       1
       16748.414       80.525900       40.293319       1
       16771.077       49.065352       44.409144       0
       16793.741       53.345723       51.256960       0
       16816.404       49.406538       57.449226       0
       16839.067       122.40290       66.533689       0
       16861.730       70.660596       73.523906       0
       16884.393       32.681970       81.966301       0
       16907.057       73.658243       91.086013       0
       16929.720       112.35070       103.51682       0
       16952.383       93.313396       113.55259       0
       16975.046       115.76022       127.72386       0
       16997.710      -42.090749       139.49558       0
       17020.373      -17.573242       157.72458       0
       17043.036      -47.470590       179.53781       0
       17065.699       17.849637       194.11678       0
       17088.362       197.67550       212.91615       0
       17111.026       168.39817       241.63640       0
       17133.689       19.191657       269.12216       0
       17156.352       55.833821       313.92744       0
       17179.015       17.827264       354.88808       0
       17201.679       170.46822       414.69255       0
       17224.342      -321.95663       462.72668       0
       17247.005       115.76087       527.72691       0
