#WAVELENGTH FLUX ERROR MASK
       7524.7721       8094.6809       16369.320       0
       7537.1152      -317.99357       16137.054       0
       7549.4584       1294.7948       11988.158       0
       7561.8016      -2957.3073       10010.458       0
       7574.1447       2786.8922       7912.5513       0
       7586.4879       3188.1392       6323.9905       0
       7598.8310      -900.83673       4973.7115       0
       7611.1742      -1685.2126       4338.6282       0
       7623.5174      -2495.3946       3709.0775       0
       7635.8605       1403.2642       3186.4131       0
       7648.2037      -2245.5221       2453.6258       0
       7660.5468      -505.85475       2643.0643       0
       7672.8900      -1450.3217       1716.7183       0
       7685.2332      -507.75919       1636.5657       0
       7697.5763      -435.92852       1292.5807       0
       7709.9195      -969.19845       1321.5288       0
       7722.2627      -19.635371       893.42168       0
       7734.6058      -287.79537       888.11621       0
       7746.9490      -174.95059       722.23946       0
       7759.2921       48.225654       741.67377       0
       7771.6353      -108.72668       700.46902       0
       7783.9785       119.50027       726.23662       0
       7796.3216      -11.020174       506.54763       0
       7808.6648      -80.119691       514.99451       0
       7821.0079       405.54380       411.56926       0
       7833.3511       199.18051       469.47914       0
       7845.6943       112.45687       362.57650       0
       7858.0374       126.64459       339.48044       0
       7870.3806       67.770917       298.60317       0
       7882.7237       43.487973       284.08009       0
       7895.0669       54.425343       233.06666       0
       7907.4101       152.20130       248.00844       0
       7919.7532      -159.28500       208.17935       0
       7932.0964       15.028604       221.47939       0
       7944.4395       100.76386       186.13913       0
       7956.7827       188.83233       200.47162       0
       7969.1259       11.764842       170.02429       0
       7981.4690       149.68948       186.86123       0
       7993.8122       135.30006       158.50453       0
       8006.1554       123.89202       174.46369       0
       8018.4985       101.13226       148.19099       0
       8030.8417       265.60296       161.64038       0
       8043.1848       125.00793       141.22271       0
       8055.5280       134.52289       158.44264       0
       8067.8712       61.907263       133.60600       0
       8080.2143       62.394764       151.90618       0
       8092.5575       227.46282       132.40082       0
       8104.9006       339.54159       166.56430       0
       8117.2438       2.7634606       126.95403       0
       8129.5870       276.15814       140.16744       0
       8141.9301       283.45918       122.03310       0
       8154.2733       1.1121981       134.34549       1
       8166.6164       289.43228       117.38476       1
       8178.9596       307.12857       132.53903       1
       8191.3028       90.069073       114.20039       1
       8203.6459       358.90735       127.77502       1
       8215.9891       130.06413       108.73384       1
       8228.3322       131.97797       154.00029       1
       8240.6754       99.017837       102.61088       1
       8253.0186       142.37503       128.19823       1
       8265.3617       83.710656       106.61579       1
       8277.7049       158.94944       109.44115       1
       8290.0480       61.429566       93.637173       1
       8302.3912       296.99421       104.32631       1
       8314.7344       163.20930       90.150395       1
       8327.0775       87.682148       100.76281       1
       8339.4207       163.82653       86.771858       1
       8351.7639       148.30314       97.298805       1
       8364.1070       74.838958       84.473813       1
       8376.4502       136.91171       94.789740       1
       8388.7933       103.02353       81.170398       1
       8401.1365       135.29043       91.400268       1
       8413.4797       145.63155       87.099123       1
       8425.8228       44.091262       102.95623       1
       8438.1660       82.671203       75.721909       1
       8450.5091       183.24777       88.507108       1
       8462.8523       123.02573       75.049441       1
       8475.1955       181.99548       85.718181       1
       8487.5386       130.96502       73.698261       1
       8499.8818       167.26385       83.337167       1
       8512.2249       101.20373       71.783506       1
       8524.5681       76.121363       81.380915       1
       8536.9113       119.06596       69.523324       1
       8549.2544       152.92490       80.024597       1
       8561.5976       106.92130       69.028016       1
       8573.9407       166.50380       79.545411       1
       8586.2839       73.734476       68.195686       1
       8598.6271       146.56470       78.549084       1
       8610.9702       121.21225       67.539285       1
       8623.3134       182.09489       78.488478       1
       8635.6566       122.04428       67.322383       1
       8647.9997       178.26301       78.281887       1
       8660.3429       121.78156       66.182659       1
       8672.6860       116.59015       75.940327       1
       8685.0292       123.02747       64.683314       1
       8697.3724       101.39642       73.366919       1
       8709.7155       84.903200       62.330927       1
       8722.0587       115.54726       70.774698       1
       8734.4018       122.21515       60.661750       1
       8746.7450       101.70795       68.419469       1
       8759.0882       148.02032       58.472070       1
       8771.4313       140.11816       67.503961       1
       8783.7745       97.948971       56.928307       1
       8796.1176       148.43696       66.281681       1
       8808.4608       109.38153       56.163113       1
       8820.8040       111.39698       66.895575       1
       8833.1471       77.765247       55.578322       1
       8845.4903       147.20970       66.681822       1
       8857.8334       128.43816       54.107261       1
       8870.1766       183.20251       61.861300       1
       8882.5198       107.80604       53.216653       1
       8894.8629       88.540503       60.893628       1
       8907.2061       161.54552       56.621365       1
       8919.5493       119.85112       76.406179       1
       8931.8924       177.99947       51.927839       1
       8944.2356       75.273430       66.192792       1
       8956.5787       159.27815       50.579649       1
       8968.9219       145.78425       58.040275       1
       8981.2651       125.54228       49.209224       1
       8993.6082       139.04788       56.964272       1
       9005.9514       164.56840       48.609527       1
       9018.2945       169.21364       56.615467       1
       9030.6377       152.91558       48.386462       1
       9042.9809       198.31214       56.009924       1
       9055.3240       123.06610       47.431735       1
       9067.6672       53.904131       55.593946       1
       9080.0103       144.36761       47.278267       1
       9092.3535       120.84558       54.310003       1
       9104.6967       121.53705       46.548317       1
       9117.0398       66.227214       53.884030       1
       9129.3830       110.77661       45.351491       1
       9141.7261       119.10041       52.153862       1
       9154.0693       107.30174       44.750205       1
       9166.4125       138.98928       50.945792       1
       9178.7556       97.281121       47.547635       1
       9191.0988       90.596605       57.748732       1
       9203.4419       120.80451       45.621604       1
       9215.7851       126.74238       49.466522       1
       9228.1283       86.647008       44.688992       1
       9240.4714       71.389179       56.531404       1
       9252.8146       99.166524       41.916213       1
       9265.1578       150.17309       48.453961       1
       9277.5009       144.46743       41.202496       1
       9289.8441       147.44628       47.909332       1
       9302.1872       96.859199       40.982698       1
       9314.5304       115.10705       46.517963       1
       9326.8736       124.57048       40.530245       1
       9339.2167       183.04392       46.103598       1
       9351.5599       181.55421       40.760087       1
       9363.9030       114.75670       45.114476       1
       9376.2462       116.02665       40.131433       1
       9388.5894       140.81743       51.038718       1
       9400.9325       131.82703       39.817659       1
       9413.2757       111.71334       44.797212       1
       9425.6188       185.09891       38.844269       1
       9437.9620       113.68490       45.857080       1
       9450.3052       189.30564       38.462694       1
       9462.6483       136.73561       43.883362       1
       9474.9915       117.38948       38.719413       1
       9487.3346       169.01786       42.889369       1
       9499.6778       122.46133       37.793165       1
       9512.0210       169.55315       42.240492       1
       9524.3641       111.06208       40.281375       1
       9536.7073       145.84182       42.049640       1
       9549.0505       129.44263       36.663255       1
       9561.3936       159.05314       41.419992       1
       9573.7368       108.03985       39.018421       1
       9586.0799       233.42147       47.921552       1
       9598.4231       189.77619       35.935430       1
       9610.7663       202.59463       40.538175       1
       9623.1094       150.98729       38.855726       1
       9635.4526       193.35608       40.515069       1
       9647.7957       75.653291       35.804069       1
       9660.1389       189.17411       39.997452       1
       9672.4821       109.56886       35.075989       1
       9684.8252       150.20399       39.538718       1
       9697.1684       144.95142       35.168733       1
       9709.5115       121.31044       39.176869       1
       9721.8547       134.97987       36.962477       1
       9734.1979       106.90584       38.519741       1
       9746.5410       127.64104       34.308873       1
       9758.8842       152.34343       38.499903       1
       9771.2273       120.41604       34.296493       1
       9783.5705       125.94796       38.761552       1
       9795.9137       167.96789       36.904066       1
       9808.2568       182.75081       38.340877       1
       9820.6000       147.44625       33.885498       1
       9832.9431       125.90830       37.736474       1
       9845.2863       139.69127       33.417872       1
       9857.6295       150.06049       37.569695       1
       9869.9726       151.34400       36.802506       1
       9882.3158       171.61854       37.833390       1
       9894.6590       142.25742       33.299407       1
       9907.0021       140.10088       37.762790       1
       9919.3453       121.60582       35.504359       1
       9931.6884       149.27269       37.614264       1
       9944.0316       166.27975       33.043442       1
       9956.3748       142.70389       36.667130       1
       9968.7179       116.81965       32.600163       1
       9981.0611       132.31951       36.071724       1
       9993.4042       122.49737       32.004290       1
       10005.747       147.42765       35.937959       1
       10018.091       140.09527       31.396884       1
       10030.434       147.97844       35.614880       1
       10042.777       126.59111       31.311831       1
       10055.120       112.65013       35.752356       1
       10067.463       169.14797       31.595510       1
       10079.806       150.47866       35.905838       1
       10092.150       160.58636       31.562519       1
       10104.493       112.78879       35.306344       1
       10116.836       73.696378       31.345430       1
       10129.179       108.27261       35.457346       1
       10141.522       157.30301       30.933881       1
       10153.865       151.61187       35.003649       1
       10166.208       125.19762       30.626785       1
       10178.552       172.39480       35.624258       1
       10190.895       110.34371       32.280532       1
       10203.238       135.29882       40.830565       1
       10215.581       113.46393       30.174805       1
       10227.924       146.42709       34.966688       1
       10240.267       167.50405       30.125999       1
       10252.611       148.10691       34.800761       1
       10264.954       108.22624       29.289562       1
       10277.297       149.16101       34.272108       1
       10289.640       102.50298       29.275964       1
       10301.983       139.71147       33.592832       1
       10314.326       125.48345       28.727608       1
       10326.670       98.599498       33.643572       1
       10339.013       138.53234       28.850762       1
       10351.356       124.83498       33.467323       1
       10363.699       125.56326       28.354603       1
       10376.042       167.81097       39.293513       1
       10388.385       144.44182       30.624784       1
       10400.729       125.84661       33.164671       1
       10413.072       134.45538       31.192905       1
       10425.415       134.88117       33.294624       1
       10437.758       163.68664       28.425902       1
       10450.101       128.96202       33.100640       1
       10462.444       150.60788       28.374013       1
       10474.788       128.54186       32.960898       1
       10487.131       104.33470       28.448593       1
       10499.474       120.36395       32.846916       1
       10511.817       121.45136       30.732198       1
       10524.160       125.36141       38.013935       1
       10536.503       101.16653       31.103640       1
       10548.846       81.576638       33.315948       1
       10561.190       120.52399       28.123535       1
       10573.533       137.81690       32.856631       1
       10585.876       118.70145       28.284597       1
       10598.219       100.91153       32.700325       1
       10610.562       125.59460       27.828235       1
       10622.905       94.137112       31.955123       1
       10635.249       115.85214       27.687640       1
       10647.592       125.16792       32.029944       1
       10659.935       103.69504       27.564974       1
       10672.278       58.943501       31.726639       1
       10684.621       113.82922       27.272492       1
       10696.964       117.27050       31.640652       1
       10709.308       98.421614       27.268774       1
       10721.651       162.30764       31.795338       1
       10733.994       113.37567       27.173674       1
       10746.337       121.46589       31.476984       1
       10758.680       151.58102       27.131714       1
       10771.023       132.70118       31.700739       1
       10783.367       139.70543       27.080751       1
       10795.710       133.62055       31.325362       1
       10808.053       133.69143       26.851511       1
       10820.396       156.35961       31.142045       1
       10832.739       120.32547       29.338332       1
       10845.082       139.42224       36.032244       1
       10857.425       122.58923       26.722666       1
       10869.769       143.82004       31.161401       1
       10882.112       122.10945       26.617639       1
       10894.455       153.05581       30.880881       1
       10906.798       138.31598       26.364965       1
       10919.141       142.36767       30.662014       1
       10931.484       115.87593       26.431161       1
       10943.828       128.08833       30.837043       1
       10956.171       134.99695       28.155137       1
       10968.514       122.91030       30.814487       1
       10980.857       69.131712       26.272985       1
       10993.200       133.21227       30.953753       1
       11005.543       96.676431       26.541945       1
       11017.887       117.69534       30.652731       1
       11030.230       145.90005       26.637061       1
       11042.573       133.24673       30.690500       1
       11054.916       134.76741       27.038539       1
       11067.259       157.65724       29.823036       1
       11079.602       115.65558       26.765904       1
       11091.946       137.18215       29.897975       1
       11104.289       133.85729       26.200896       1
       11116.632       149.28462       30.055513       1
       11128.975       157.50733       26.607427       1
       11141.318       123.36783       30.080134       1
       11153.661       117.49763       26.657887       1
       11166.005       132.07596       30.162046       1
       11178.348       149.80244       26.543579       1
       11190.691       141.84471       30.003525       1
       11203.034       146.46055       26.443698       0
       11215.377       115.65809       30.925261       0
       11227.720       113.62490       26.688383       0
       11240.063       158.86942       30.594797       0
       11252.407       167.31401       26.441159       0
       11264.750       129.49505       29.812642       0
       11277.093       114.71987       26.441569       0
       11289.436       105.88353       29.618302       0
       11301.779       128.00196       26.546218       0
       11314.122       129.35608       29.968022       0
       11326.466       107.42252       26.723876       0
       11338.809       99.430636       31.100901       0
       11351.152       147.71196       28.804988       0
       11363.495       100.15639       34.318756       0
       11375.838       91.745090       32.226609       0
       11388.181       161.83811       40.032154       0
       11400.525       147.20307       39.029077       0
       11412.868       159.74087       49.128791       0
       11425.211       102.91793       48.609969       0
       11437.554       179.66593       63.417626       0
       11449.897       105.87675       68.000991       0
       11462.240       93.410806       81.253378       0
       11474.584       81.786338       85.538401       0
       11486.927       283.58772       117.98729       0
       11499.270       132.25072       99.882405       0
       11511.613       87.029729       124.41973       0
       11523.956       61.804125       124.14155       0
       11536.299       207.70761       162.73460       0
       11548.643       192.15829       167.60542       0
       11560.986       317.48876       228.67190       0
       11573.329      -254.53872       249.45772       0
       11585.672       560.42905       354.23930       0
       11598.015       214.01524       386.73588       0
       11610.358       37.221342       543.62707       0
       11622.701       201.52214       662.94177       0
       11635.045       1073.9988       810.23948       0
       11647.388      -601.34419       856.28240       0
       11659.731      -209.60225       1211.1587       0
       11672.074       228.32162       1397.5416       0
       11684.417      -559.40039       2380.4024       0
       11696.760       2470.1879       2598.3073       0
       11709.104      -1125.8207       3559.7308       0
       11721.447       2221.3911       4106.2947       0
       11733.790       4241.8234       5422.6594       0
       11746.133      -686.16018       5498.6144       0
       11758.476      -2415.9029       5766.1353       0
       11770.819       373.86994       5327.8782       0
       11783.163       434.53089       5454.9381       0
       11795.506       1997.9753       4799.5727       0
       11807.849      -4225.7290       5610.0249       0
       11820.192      -2834.9758       5942.6126       0
       11832.535      -766.15405       8197.8790       0
       11844.878      -1718.2039       8181.3155       0
       11857.222       1203.7332       11609.512       0
       11869.565      -173.53133       13996.555       0
       11881.908      -5070.4950       13879.443       0
       11894.251       20495.931       15195.517       0
       11906.594      -2567.0910       17893.450       0
       11918.937      -4006.7578       19256.610       0
       11931.280      -477.88103       27597.152       0
       11943.624      -21373.815       28188.912       0
       11955.967      -21693.671       45004.150       0
