#WAVELENGTH FLUX ERROR MASK
       10217.983      -23.139966       4114.0066       0
       10240.900      -4069.7220       3535.6169       0
       10263.817       2268.0232       3159.5367       0
       10286.734       211.38424       2643.0512       0
       10309.651      -993.39020       2370.8937       0
       10332.568      -1746.4078       2061.6560       0
       10355.486       1087.6707       1925.9773       0
       10378.403      -1205.2522       1708.2204       0
       10401.320       46.055914       1594.9792       0
       10424.237      -1326.1365       1405.4277       0
       10447.154      -766.23972       1265.8412       0
       10470.071      -95.161771       1053.2484       0
       10492.988      -66.727999       923.93690       0
       10515.905      -310.46559       746.91853       0
       10538.822      -215.02523       665.60039       0
       10561.740       195.75221       560.66753       0
       10584.657      -1090.6853       415.11246       0
       10607.574       28.166222       441.04968       0
       10630.491       71.221109       413.79438       0
       10653.408       192.85048       355.27187       0
       10676.325       165.23030       326.84657       0
       10699.242       218.54031       274.08518       0
       10722.159      -79.028108       239.06378       0
       10745.077      -90.255802       192.06482       0
       10767.994       24.997608       166.52598       0
       10790.911       55.062308       135.17670       0
       10813.828       137.48903       119.83840       0
       10836.745       3.1190869       99.734864       0
       10859.662       40.663648       92.433635       0
       10882.579       95.811268       82.062142       0
       10905.496       56.335816       77.819570       0
       10928.413       160.09437       71.141705       0
       10951.331       31.855939       67.610969       0
       10974.248       80.059638       61.488717       0
       10997.165       77.118594       59.525847       0
       11020.082       113.54672       54.058707       1
       11042.999       110.48345       52.294872       1
       11065.916       83.294632       47.439026       1
       11088.833      -65.290138       38.760872       1
       11111.750       86.091544       42.919922       1
       11134.668       83.680208       42.931337       1
       11157.585       70.499133       40.544085       1
       11180.502       96.471175       41.204887       1
       11203.419       71.707052       38.827962       1
       11226.336       77.587754       40.055348       1
       11249.253       79.763861       38.213697       1
       11272.170       72.774170       39.030232       1
       11295.087      -76.743143       30.453082       1
       11318.004       75.978055       38.234704       1
       11340.922       88.499102       36.800540       1
       11363.839       72.748885       37.648530       1
       11386.756       86.863858       36.185866       1
       11409.673       55.359849       36.835357       1
       11432.590       137.30173       35.742976       1
       11455.507       80.681242       36.454471       1
       11478.424       67.789038       34.860942       1
       11501.341       83.843388       36.184638       1
       11524.259       108.99138       35.140840       1
       11547.176       102.84278       36.258897       1
       11570.093       100.84099       34.627323       1
       11593.010       94.836837       35.585871       1
       11615.927       105.50617       34.309235       1
       11638.844       102.10423       34.969171       1
       11661.761       108.07230       33.753024       1
       11684.678       110.55736       34.517884       1
       11707.595       84.970607       32.936039       1
       11730.513       68.301159       33.582991       1
       11753.430       72.528797       32.102320       1
       11776.347       96.566706       32.293411       1
       11799.264       116.81571       32.062636       1
       11822.181       91.543453       31.538375       1
       11845.098       91.271299       30.589087       1
       11868.015       89.967485       30.734163       1
       11890.932       94.113616       30.251137       1
       11913.850       120.40292       10869017.       1
       11936.767       84.367277       29.797171       1
       11959.684       124.76725       30.424341       1
       11982.601       86.419601       29.503592       1
       12005.518       105.37412       29.431817       1
       12028.435       79.125611       28.962470       1
       12051.352      -117.26797       21.577627       1
       12074.269       88.182394       28.646891       1
       12097.186       122.60942       28.896989       1
       12120.104       93.953756       28.345664       1
       12143.021       100.68159       28.724184       1
       12165.938       115.31263       28.287138       1
       12188.855       81.144724       28.153105       1
       12211.772       74.973929       27.488388       1
       12234.689       111.53091       28.100477       1
       12257.606       81.896116       27.068375       1
       12280.523       87.491397       27.680197       1
       12303.441       81.318525       27.115708       1
       12326.358       114.80684       27.667245       1
       12349.275       103.08517       26.911010       1
       12372.192       120.89033       27.491481       1
       12395.109       101.40806       26.667215       1
       12418.026       81.752978       26.869137       1
       12440.943       101.58973       26.405888       1
       12463.860       126.04280       27.121452       1
       12486.777       105.44641       26.364065       1
       12509.695       92.299193       26.626153       1
       12532.612       83.619024       26.060164       1
       12555.529       84.845730       26.226498       1
       12578.446       96.501790       25.917882       1
       12601.363       117.15799       26.493258       1
       12624.280       76.698502       25.642825       1
       12647.197       113.08469       26.381288       1
       12670.114       105.99869       25.705654       1
       12693.032       86.481149       25.880457       1
       12715.949       95.255634       25.356442       1
       12738.866       82.014267       25.557601       1
       12761.783       79.138385       24.814664       1
       12784.700       74.763661       25.210123       1
       12807.617       87.822075       24.614230       1
       12830.534       57.042680       24.762581       1
       12853.451       79.325432       24.432258       1
       12876.368       109.31335       25.063728       1
       12899.286       86.191559       24.337688       1
       12922.203       97.927451       24.880543       1
       12945.120       83.306097       24.007861       1
       12968.037       112.69583       24.564961       1
       12990.954       96.424212       23.870377       1
       13013.871       142.88886       24.640791       1
       13036.788       109.52148       23.647027       1
       13059.705       106.76494       23.911471       1
       13082.623       107.82725       23.485537       1
       13105.540       129.56853       24.058460       1
       13128.457       134.08295       23.288702       1
       13151.374       131.63539       23.324864       1
       13174.291       134.22635       23.126459       1
       13197.208       116.56013       22.920474       1
       13220.125       116.10820       22.714355       1
       13243.042       128.26145       22.856936       1
       13265.959       132.23969       22.681498       1
       13288.877       137.64275       22.687947       1
       13311.794       145.50259       22.656009       1
       13334.711       13.847270       17.931508       1
       13357.628       136.53021       22.560142       1
       13380.545       157.33102       22.811891       1
       13403.462       127.41240       22.259364       1
       13426.379       125.76781       22.299494       1
       13449.296       110.42546       21.878134       1
       13472.214       130.20194       22.127075       1
       13495.131       141.06734       21.896603       1
       13518.048       126.86713       21.979425       1
       13540.965       125.65233       21.503950       1
       13563.882       140.96903       21.874900       1
       13586.799       109.22161       21.414363       1
       13609.716       137.65526       21.988319       1
       13632.633       94.732356       21.398991       1
       13655.550       102.72263       21.580577       1
       13678.468      -48.890206       17.138606       1
       13701.385       102.67657       21.586644       1
       13724.302       105.17134       21.595007       1
       13747.219       114.17712       21.622564       1
       13770.136       102.26662       21.612876       1
       13793.053       96.065789       21.701218       1
       13815.970       104.45676       21.613320       1
       13838.887       136.22193       21.904244       1
       13861.805       96.323254       21.528912       1
       13884.722       116.54702       21.703377       1
       13907.639       124.36652       21.702098       1
       13930.556       121.30644       21.730880       1
       13953.473       86.475028       21.148937       1
       13976.390       111.79050       21.504367       1
       13999.307       115.73141       21.326801       1
       14022.224       115.86409       21.281812       1
       14045.141       100.40116       6066322.5       1
       14068.059       131.66232       21.746057       1
       14090.976       99.093596       20.754982       1
       14113.893       98.836007       20.753718       1
       14136.810       81.282326       20.573931       1
       14159.727       101.29016       20.593745       1
       14182.644       92.440762       20.596774       1
       14205.561       99.079452       20.638905       1
       14228.478       97.826800       20.535556       1
       14251.396       113.01829       20.676353       1
       14274.313       111.71761       20.466688       1
       14297.230       124.51278       20.818040       1
       14320.147       137.46623       20.417858       1
       14343.064       96.139042       20.180362       1
       14365.981       101.63754       20.096692       1
       14388.898       92.607965       20.060594       1
       14411.815       107.85115       20.158920       1
       14434.732       95.152933       19.958371       1
       14457.650       94.676495       19.782264       1
       14480.567       120.19240       20.199993       1
       14503.484       129.19699       19.985703       1
       14526.401       107.56352       20.041920       1
       14549.318       100.08893       19.764134       1
       14572.235       103.28904       20.132627       1
       14595.152       87.436957       19.727386       1
       14618.069       109.83226       20.187689       1
       14640.987       115.83572       19.830453       1
       14663.904       113.32501       20.279504       1
       14686.821       94.132365       19.712581       1
       14709.738       126.71961       20.368092       1
       14732.655       111.85604       19.862697       1
       14755.572       105.04057       20.236192       1
       14778.489       97.859036       19.757344       1
       14801.406       112.46989       20.236366       1
       14824.323       98.944831       19.678622       1
       14847.241       131.03322       20.257881       1
       14870.158       135.75718       19.814474       1
       14893.075       143.75847       20.333045       1
       14915.992       95.644837       19.401205       1
       14938.909       87.583386       19.688185       1
       14961.826       104.59417       19.342863       1
       14984.743       126.61628       19.779413       1
       15007.660       109.26442       19.220960       1
       15030.578       120.99646       19.634175       1
       15053.495       100.46816       18.980813       1
       15076.412       139.37181       19.626215       1
       15099.329       111.89533       18.935079       1
       15122.246       134.95574       19.519144       1
       15145.163       95.216592       18.692865       1
       15168.080       100.12041       19.107983       1
       15190.997       87.246008       18.456482       1
       15213.914       112.29761       18.905185       1
       15236.832       112.02693       18.296678       1
       15259.749       80.227079       19.508955       1
       15282.666       110.48758       18.129432       1
       15305.583       99.073513       19.597653       1
       15328.500       99.666927       18.117207       1
       15351.417       105.23189       18.471304       1
       15374.334       90.195926       18.004121       1
       15397.251       100.85223       18.460077       1
       15420.168       118.27403       18.116020       1
       15443.086       94.062028       18.283537       1
       15466.003       90.695974       17.916184       1
       15488.920       85.850948       18.261037       1
       15511.837       72.750397       17.685689       1
       15534.754       91.015421       18.323721       1
       15557.671       92.711303       17.841509       1
       15580.588       87.153972       18.151049       1
       15603.505       80.882549       17.756756       1
       15626.423       74.489836       18.101425       1
       15649.340       89.487683       17.704433       1
       15672.257       108.54383       18.215358       1
       15695.174       107.04371       17.750060       1
       15718.091       92.678489       17.954113       1
       15741.008       105.76943       17.585649       1
       15763.925       99.432397       17.992285       1
       15786.842       102.38710       17.515118       1
       15809.759       79.104427       17.834121       1
       15832.677       77.994163       17.247543       1
       15855.594       67.060548       17.937599       1
       15878.511       75.188377       17.347148       1
       15901.428       73.351881       17.963819       1
       15924.345       71.620763       17.338381       1
       15947.262       89.031003       18.005254       1
       15970.179       95.236992       17.566239       1
       15993.096       88.636767       18.212777       1
       16016.014       91.219559       17.460207       1
       16038.931       86.138472       18.182547       1
       16061.848       87.595157       17.343167       1
       16084.765       86.611531       18.448910       1
       16107.682       96.794540       17.489245       1
       16130.599       82.903516       18.113365       1
       16153.516       96.103450       17.542767       1
       16176.433       88.025882       18.272875       1
       16199.350       89.079202       17.609593       1
       16222.268       84.129027       18.272136       1
       16245.185       51.432674       14.561886       1
       16268.102       73.892996       18.371414       1
       16291.019       81.534718       17.761113       1
       16313.936       89.044804       18.549527       1
       16336.853       84.046511       17.829963       1
       16359.770       103.82759       18.765505       1
       16382.687       93.739200       18.014044       1
       16405.605       89.092453       19.016662       1
       16428.522       73.140752       17.908616       1
       16451.439       58.282631       18.473831       1
       16474.356       92.589583       18.084876       1
       16497.273       83.108407       18.935978       1
       16520.190       76.452829       18.493804       1
       16543.107       68.549311       19.179377       1
       16566.024       71.457334       19.544868       1
       16588.941       61.586475       16.788736       1
       16611.859       64.062913       17.616899       1
       16634.776       82.739909       23.271034       1
       16657.693       90.188213       24.474816       1
       16680.610       80.614244       27.388771       1
       16703.527       80.591110       29.188979       1
       16726.444       60.624343       32.998160       1
       16749.361       28.502507       35.825869       1
       16772.278       123.96686       42.988134       0
       16795.196       89.780851       47.186418       0
       16818.113       108.94597       54.704667       0
       16841.030       99.561611       59.746365       0
       16863.947       83.431440       70.022585       0
       16886.864       141.40897       76.930111       0
       16909.781      0.16821932       86.761617       0
       16932.698       75.005235       78.340375       0
       16955.615       92.877078       109.24917       0
       16978.532       125.28403       97.853274       0
       17001.450      -22.787188       135.88945       0
       17024.367       94.966980       147.88159       0
       17047.284      -163.36225       166.73706       0
       17070.201      -103.06271       179.51423       0
       17093.118       1.5488222       206.21762       0
       17116.035      -93.466813       223.54148       0
       17138.952       146.34930       258.91540       0
       17161.869       396.16380       294.70253       0
       17184.787      -173.59353       337.38143       0
       17207.704      -5.8434711       384.36045       0
       17230.621      -268.89025       444.31011       0
       17253.538       83.014409       494.73505       0
       17276.455      -236.43717       562.42039       0
       17299.372      -365.32081       614.57671       0
       17322.289       107.19234       691.52711       0
       17345.206       23.388442       744.91997       0
