#WAVELENGTH FLUX ERROR MASK
       7507.7985       4127.1926       13980.387       0
       7520.3557       8187.2554       15194.960       0
       7532.9130      -2813.5262       9960.5529       0
       7545.4702      -4277.4201       9966.8891       0
       7558.0274       2223.6260       6437.9243       0
       7570.5847      -842.97109       6178.9598       0
       7583.1419      -1856.2207       3993.3276       0
       7595.6991      -998.52092       3985.2858       0
       7608.2564       1555.2377       2733.9712       0
       7620.8136      -595.79541       2815.4085       0
       7633.3708       1021.4840       1984.1978       0
       7645.9281      -806.28006       2980.7689       0
       7658.4853       113.28824       1452.4146       0
       7671.0426       531.17016       1485.6780       0
       7683.5998      -314.97617       998.17937       0
       7696.1570      -169.51222       1030.7016       0
       7708.7143       224.57494       702.09996       0
       7721.2715       250.66135       748.70119       0
       7733.8287       371.64359       544.42092       0
       7746.3860      -50.565378       604.04081       0
       7758.9432       998.67580       453.66281       0
       7771.5004      -510.17610       596.17372       0
       7784.0577      -318.72348       376.93566       0
       7796.6149       6.5492441       427.20297       0
       7809.1722       125.02863       311.50244       0
       7821.7294       83.128265       342.58989       0
       7834.2866       38.179442       265.89223       0
       7846.8439      -56.223873       272.31996       0
       7859.4011      -26.985785       201.15693       0
       7871.9583       54.767954       224.70844       0
       7884.5156       17.294136       168.85614       0
       7897.0728      -62.630244       191.61754       0
       7909.6300       66.199744       147.77112       0
       7922.1873      -50.387392       169.90912       0
       7934.7445       71.650035       132.44897       0
       7947.3018      -209.48114       151.36747       0
       7959.8590       81.735427       127.17220       0
       7972.4162       121.91081       142.04446       0
       7984.9735       122.73723       110.34233       0
       7997.5307       206.04756       131.79633       0
       8010.0879       58.194219       102.89852       0
       8022.6452       173.74018       125.41505       0
       8035.2024       51.496364       97.020890       0
       8047.7596       102.05329       117.11483       0
       8060.3169       82.586579       93.651803       0
       8072.8741       103.30141       113.11697       0
       8085.4314       139.58799       90.588085       0
       8097.9886       117.84526       109.27789       0
       8110.5458       39.002563       86.514493       0
       8123.1031       46.961652       104.85187       0
       8135.6603       112.70565       83.979757       0
       8148.2175       144.71870       101.14352       0
       8160.7748       102.95996       81.561927       1
       8173.3320       117.72106       98.417079       1
       8185.8892       83.644282       77.898331       1
       8198.4465       50.428671       93.913544       1
       8211.0037       241.44011       76.097228       1
       8223.5610       31.287933       90.567886       1
       8236.1182       79.749667       71.478546       1
       8248.6754       98.026094       86.593437       1
       8261.2327       44.101199       67.554222       1
       8273.7899       40.590349       81.680218       1
       8286.3471       52.931739       64.200307       1
       8298.9044       129.13573       106.20801       1
       8311.4616       104.27099       61.834401       1
       8324.0188       141.03923       74.438023       1
       8336.5761       88.089942       59.435514       1
       8349.1333       96.944630       71.907805       1
       8361.6906       67.344397       57.602997       1
       8374.2478       93.797629       69.579167       1
       8386.8050       124.15597       56.309806       1
       8399.3623       70.968583       67.899348       1
       8411.9195       85.851297       54.661244       1
       8424.4767       78.014518       65.482912       1
       8437.0340       123.13527       52.579644       1
       8449.5912       94.025813       65.431544       1
       8462.1484       111.62615       50.884376       1
       8474.7057       65.032336       62.959253       1
       8487.2629       86.074273       48.997562       1
       8499.8202       63.244467       62.002681       1
       8512.3774       52.307699       47.598138       1
       8524.9346       22.251351       59.832519       1
       8537.4919       97.563287       47.043277       1
       8550.0491       24.161595       57.104918       1
       8562.6063       52.729610       45.925096       1
       8575.1636       118.56200       71.020986       1
       8587.7208       94.068873       50.370859       1
       8600.2780       95.619087       57.495537       1
       8612.8353       48.211595       45.215231       1
       8625.3925       38.037548       57.450530       1
       8637.9498       61.907407       44.853487       1
       8650.5070       44.838341       56.344944       1
       8663.0642       96.321552       44.438369       1
       8675.6215       34.281442       55.319975       1
       8688.1787       46.548471       42.962946       1
       8700.7359       78.193283       53.973874       1
       8713.2932       66.733121       41.578875       1
       8725.8504       66.045037       52.609388       1
       8738.4077       62.360284       39.897267       1
       8750.9649       64.426118       50.083164       1
       8763.5221       85.168189       38.528953       1
       8776.0794       46.826649       48.450990       1
       8788.6366       69.704748       37.932413       1
       8801.1938       96.838908       48.174966       1
       8813.7511       72.130118       37.172469       1
       8826.3083       92.922017       47.755400       1
       8838.8655       92.271797       36.619049       1
       8851.4228       96.288815       45.990707       1
       8863.9800       44.461533       38.757735       1
       8876.5373       61.460072       45.512540       1
       8889.0945       52.989977       34.787336       1
       8901.6517       105.92218       44.950370       1
       8914.2090       132.23363       34.849352       1
       8926.7662       73.214017       43.425358       1
       8939.3234       86.926955       34.077726       1
       8951.8807       52.467397       43.058436       1
       8964.4379       89.460867       33.738431       1
       8976.9951       112.15673       42.222779       1
       8989.5524       85.476689       32.739360       1
       9002.1096       105.15272       41.727341       1
       9014.6669       71.369994       32.060880       1
       9027.2241       115.07500       41.001354       1
       9039.7813       82.419646       31.808886       1
       9052.3386       101.03337       41.384245       1
       9064.8958       119.38301       35.104331       1
       9077.4530       110.02690       40.287113       1
       9090.0103       97.647108       31.504796       1
       9102.5675       115.49689       39.717062       1
       9115.1247       91.077736       30.791901       1
       9127.6820       90.296106       39.252471       1
       9140.2392       84.909955       30.018135       1
       9152.7965       78.463815       38.255983       1
       9165.3537       97.454069       29.875225       1
       9177.9109       84.560466       37.577967       1
       9190.4682       127.24298       29.294645       1
       9203.0254       57.364402       37.205563       1
       9215.5826       107.33875       28.506326       1
       9228.1399       108.93534       36.020660       1
       9240.6971       98.805173       28.082781       1
       9253.2543       137.16141       42.986760       1
       9265.8116       90.143636       27.616141       1
       9278.3688       84.920557       35.087161       1
       9290.9261       98.504146       27.401939       1
       9303.4833       72.088594       35.890629       1
       9316.0405       101.84877       26.916204       1
       9328.5978       84.005538       33.127800       1
       9341.1550       117.11886       27.251053       1
       9353.7122       101.92159       32.756420       1
       9366.2695       68.599418       26.705221       1
       9378.8267       114.47611       32.356935       1
       9391.3839       102.61529       26.736385       1
       9403.9412       70.828614       32.352470       1
       9416.4984       79.977763       26.445229       1
       9429.0557       79.544606       38.988276       1
       9441.6129       104.46388       26.024620       1
       9454.1701       102.50189       31.086907       1
       9466.7274       106.62282       25.716425       1
       9479.2846       76.097003       30.837765       1
       9491.8418       92.205460       25.302848       1
       9504.3991       94.453160       30.564220       1
       9516.9563       110.22823       25.084974       1
       9529.5135       117.18632       30.449821       1
       9542.0708       81.936844       26.918341       1
       9554.6280       90.183110       30.279032       1
       9567.1853       97.699321       24.500715       1
       9579.7425       107.04555       30.392663       1
       9592.2997       98.858842       24.213298       1
       9604.8570       111.64331       29.834965       1
       9617.4142       81.957004       23.814045       1
       9629.9714       96.295220       29.313177       1
       9642.5287       95.986902       23.704458       1
       9655.0859       117.63051       29.495479       1
       9667.6431       104.01899       23.231752       1
       9680.2004       86.445052       29.029031       1
       9692.7576       110.23380       23.367594       1
       9705.3149       98.660546       28.418568       1
       9717.8721       117.52552       25.017552       1
       9730.4293       101.59775       28.580192       1
       9742.9866       105.98655       22.974795       1
       9755.5438       93.348388       27.802582       1
       9768.1010       101.20837       22.625309       1
       9780.6583       76.544575       27.351718       1
       9793.2155       90.762358       22.332111       1
       9805.7727       116.01018       27.389570       1
       9818.3300       88.602906       22.054634       1
       9830.8872       97.037750       27.526367       1
       9843.4445       97.066839       21.751989       1
       9856.0017       77.359482       29.881624       1
       9868.5589       81.540654       21.726967       1
       9881.1162       87.833009       30.050564       1
       9893.6734       104.53749       21.683797       1
       9906.2306       118.54527       26.967643       1
       9918.7879       89.400401       21.726416       1
       9931.3451       103.91403       26.780143       1
       9943.9023       101.44430       21.406209       1
       9956.4596       123.13354       26.818084       1
       9969.0168       101.66372       21.541267       1
       9981.5741       101.41622       27.369322       1
       9994.1313       87.653737       21.284114       1
       10006.689       100.41993       26.019631       1
       10019.246       75.845571       20.844573       1
       10031.803       130.30094       25.967274       1
       10044.360       105.45277       20.816964       1
       10056.917       85.295979       25.225426       1
       10069.475       91.272479       20.489951       1
       10082.032       118.59138       25.481147       1
       10094.589       107.29392       22.722575       1
       10107.146       109.53230       25.253258       1
       10119.704       101.97128       20.504351       1
       10132.261       107.42211       25.149828       1
       10144.818       94.575046       20.409414       1
       10157.375       102.04484       24.963928       1
       10169.933       110.36118       20.590853       1
       10182.490       105.64769       25.005635       1
       10195.047       91.194053       20.038079       1
       10207.604       107.99655       25.341857       1
       10220.162       87.537897       19.695150       1
       10232.719       79.825668       24.948141       1
       10245.276       91.657818       19.640428       1
       10257.833       97.836690       24.687598       1
       10270.390       94.893912       19.556513       1
       10282.948       80.937009       24.609173       1
       10295.505       95.338122       19.297063       1
       10308.062       113.03052       24.598481       1
       10320.619       94.794722       19.312803       1
       10333.177       92.860796       24.100636       1
       10345.734       82.510540       18.976030       1
       10358.291       85.275456       23.757013       1
       10370.848       87.332663       18.692252       1
       10383.406       95.923950       23.787233       1
       10395.963       98.543850       18.701677       1
       10408.520       80.398169       23.835177       1
       10421.077       80.184304       18.490450       1
       10433.635       84.177566       23.780357       1
       10446.192       87.785409       18.377068       1
       10458.749       102.60281       23.650276       1
       10471.306       97.152156       18.534301       1
       10483.864       86.882203       23.375454       1
       10496.421       93.909638       18.352489       1
       10508.978       88.432169       23.260697       1
       10521.535       93.700670       18.274358       1
       10534.092       99.865957       23.389283       1
       10546.650       86.334516       18.242439       1
       10559.207       87.072262       23.624210       1
       10571.764       88.346497       18.605498       1
       10584.321       93.658887       23.631656       1
       10596.879       106.72445       18.426566       1
       10609.436       96.146284       31.805837       1
       10621.993       76.247053       18.429856       1
       10634.550       95.177205       26.170319       1
       10647.108       108.65052       18.530589       1
       10659.665       97.514749       23.256327       1
       10672.222       93.259665       18.135067       1
       10684.779       94.460423       23.007027       1
       10697.337       97.393580       18.008369       1
       10709.894       112.67405       23.178272       1
       10722.451       99.313035       17.805239       1
       10735.008       83.824422       22.460857       1
       10747.565       103.72172       17.799276       1
       10760.123       107.57125       22.566589       1
       10772.680       122.67139       17.838108       1
       10785.237       129.87987       22.789335       1
       10797.794       105.45423       18.918676       1
       10810.352       111.60645       23.175277       1
       10822.909       108.75067       17.619773       1
       10835.466       107.94548       23.130768       1
       10848.023       121.78621       17.748480       1
       10860.581       114.66586       22.488366       1
       10873.138       107.42259       17.550078       1
       10885.695       104.43759       22.290310       1
       10898.252       86.894789       17.368327       1
       10910.810       105.35137       22.261974       1
       10923.367       100.81459       17.388968       1
       10935.924       129.33545       22.324524       1
       10948.481       108.57683       17.337939       1
       10961.038       79.094390       30.758033       1
       10973.596       98.403692       17.188167       1
       10986.153       111.70378       22.790441       1
       10998.710       104.91285       17.151807       1
       11011.267       82.954671       21.608449       1
       11023.825       116.53985       17.229016       1
       11036.382       115.92364       22.298129       1
       11048.939       108.33930       17.327105       1
       11061.496       69.547882       21.467463       1
       11074.054       107.28822       17.224260       1
       11086.611       99.231687       21.773701       1
       11099.168       97.372226       17.398236       1
       11111.725       85.037733       21.166902       1
       11124.283       93.307618       17.636186       1
       11136.840       89.956336       21.119408       1
       11149.397       110.25204       17.598596       1
       11161.954       86.147525       21.093310       1
       11174.512       109.80915       17.376674       1
       11187.069       97.308323       21.068282       1
       11199.626       103.21428       18.595732       1
       11212.183       101.10337       21.175259       0
       11224.740       100.97358       17.308158       0
       11237.298       119.10468       21.300748       0
       11249.855       90.850915       17.259074       0
       11262.412       124.64040       21.482760       0
       11274.969       99.648332       17.271677       0
       11287.527       99.582848       21.203825       0
       11300.084       108.53803       17.338313       0
       11312.641       96.652402       21.155234       0
       11325.198       105.23463       17.455782       0
       11337.756       92.944940       21.047330       0
       11350.313       114.04892       17.396449       0
       11362.870       94.880065       21.086907       0
       11375.427       106.66425       17.298186       0
       11387.985       88.476349       20.967935       0
       11400.542       103.08533       17.254008       0
       11413.099       90.447640       21.051610       0
       11425.656       95.667658       17.236379       0
       11438.213       89.007053       21.375382       0
       11450.771       86.234038       17.834259       0
       11463.328       78.462089       22.481783       0
       11475.885       71.127757       19.163609       0
       11488.442       81.361434       24.845419       0
       11501.000       85.320428       21.815467       0
       11513.557       92.987775       29.372957       0
       11526.114       98.494993       26.439688       0
       11538.671       126.15430       36.372546       0
       11551.229       82.616344       33.258586       0
       11563.786       125.91111       46.335740       0
       11576.343       142.97248       42.813549       0
       11588.900       117.20051       59.035293       0
       11601.458       8.5494826       52.619551       0
       11614.015       96.952359       72.786274       0
       11626.572       109.56348       64.888210       0
       11639.129       85.025293       88.304112       0
       11651.686       44.899616       79.631551       0
       11664.244       241.28703       126.74375       0
       11676.801       146.11895       106.98493       0
       11689.358       37.884989       173.34400       0
       11701.915      -7.1954874       153.81734       0
       11714.473       206.92454       234.13020       0
       11727.030      -112.59643       233.49182       0
       11739.587       133.85421       351.92047       0
       11752.144       92.548263       350.65380       0
       11764.702      -66.328585       513.69817       0
       11777.259       210.86036       509.25821       0
       11789.816       232.65897       740.05452       0
       11802.373      -142.62624       768.99720       0
       11814.931       430.29477       1225.3894       0
       11827.488      -804.03670       1275.0297       0
       11840.045       1350.3723       2067.8792       0
       11852.602       506.87398       2142.2914       0
       11865.160       3000.0184       3388.9327       0
       11877.717       1660.2354       3104.6458       0
       11890.274       3210.3194       4066.3376       0
       11902.831       4612.7499       3369.0564       0
       11915.388       4392.7975       3990.2943       0
       11927.946       1314.8646       3174.4411       0
       11940.503       3072.9296       3818.2571       0
       11953.060      -85.094918       3249.4466       0
       11965.617      -1658.5621       4336.9032       0
       11978.175       2460.9003       3910.7794       0
       11990.732       8364.9870       5910.2626       0
       12003.289      -5988.2805       5314.9578       0
       12015.846       4238.3480       8136.9496       0
