#WAVELENGTH FLUX ERROR MASK
       7484.5347       177.98301       21302.084       0
       7496.4470      -2518.7730       22756.559       0
       7508.3594       1632.0738       20144.169       0
       7520.2717      -5092.5385       16162.039       0
       7532.1840       2047.8125       11442.678       0
       7544.0964       8892.0152       11501.581       0
       7556.0087       2453.4963       7522.8233       0
       7567.9210      -1107.0302       7202.7115       0
       7579.8334       187.47931       4740.6036       0
       7591.7457       1161.0545       4746.8416       0
       7603.6580      -2449.7153       3188.8726       0
       7615.5704       857.71954       3338.1659       0
       7627.4827       1883.7756       2378.8543       0
       7639.3950      -980.27199       2489.3445       0
       7651.3074       532.06820       1753.9505       0
       7663.2197      -281.90722       1478.5421       0
       7675.1320      -717.91608       1254.7661       0
       7687.0444      -789.95425       1278.4687       0
       7698.9567       500.02016       889.93847       0
       7710.8690      -293.07174       922.03795       0
       7722.7813      -398.19788       663.23232       0
       7734.6937       216.00014       726.11315       0
       7746.6060       115.66443       540.99116       0
       7758.5183       149.93215       609.25917       0
       7770.4307       248.86661       461.04573       0
       7782.3430       315.97859       522.29535       0
       7794.2553       215.82912       390.22460       0
       7806.1677      -178.08904       427.94619       0
       7818.0800       34.737994       317.55906       0
       7829.9923      -37.943703       346.15075       0
       7841.9047       148.11551       277.46121       0
       7853.8170       189.22863       284.75426       0
       7865.7293      -43.296557       209.82597       0
       7877.6417       78.036263       239.01970       0
       7889.5540       192.37519       182.24065       0
       7901.4663       196.75139       207.75621       0
       7913.3787       68.946854       159.58937       0
       7925.2910       168.60889       187.39432       0
       7937.2033       157.89163       145.04797       0
       7949.1157       147.86093       169.66501       0
       7961.0280       170.59256       132.80232       0
       7972.9403       84.903315       155.64426       0
       7984.8526       148.69659       133.42101       0
       7996.7650       277.59638       146.33287       0
       8008.6773       56.852671       113.76871       0
       8020.5896      -59.963227       134.79762       0
       8032.5020       81.600035       108.06870       0
       8044.4143       75.100488       129.78664       0
       8056.3266       80.091424       103.90775       0
       8068.2390      -17.648815       126.32284       0
       8080.1513       27.245469       100.98087       0
       8092.0636      -30.406074       96.316304       0
       8103.9760       10.372111       97.237067       0
       8115.8883       156.86403       119.50440       0
       8127.8006       66.505280       93.387757       0
       8139.7130       194.91226       115.99125       0
       8151.6253       72.499416       91.075699       1
       8163.5376       120.57508       110.25346       1
       8175.4500       32.724687       87.826136       1
       8187.3623       120.59018       107.46579       1
       8199.2746       160.83177       85.363792       1
       8211.1870       139.26431       103.87799       1
       8223.0993       137.14912       81.698792       1
       8235.0116      -11.902627       97.042931       1
       8246.9239       112.16274       77.002587       1
       8258.8363       58.425781       92.693333       1
       8270.7486       154.19225       79.664574       1
       8282.6609       52.005473       89.062349       1
       8294.5733       107.67898       70.353909       1
       8306.4856       84.207292       85.206142       1
       8318.3979       139.26972       68.007561       1
       8330.3103       77.067917       82.106634       1
       8342.2226       138.43235       65.645394       1
       8354.1349       94.972871       80.048319       1
       8366.0473       135.90940       64.293454       1
       8377.9596       95.106591       76.902593       1
       8389.8719       79.345975       62.122573       1
       8401.7843       133.41467       76.323954       1
       8413.6966       123.83914       60.797686       1
       8425.6089       90.983280       74.036250       1
       8437.5213       138.39886       58.933133       1
       8449.4336       118.34529       71.804722       1
       8461.3459       67.809154       56.212192       1
       8473.2583       12.671727       67.330948       1
       8485.1706       16.188047       54.382643       1
       8497.0829       49.109051       56.247501       1
       8508.9952       69.640494       53.688912       1
       8520.9076       126.85881       66.334267       1
       8532.8199       118.64115       53.071581       1
       8544.7322       105.26026       65.448568       1
       8556.6446       71.118871       51.510167       1
       8568.5569       86.066350       64.555528       1
       8580.4692       51.541909       51.369577       1
       8592.3816       113.42306       64.556287       1
       8604.2939       87.558572       51.330426       1
       8616.2062       50.718863       63.472496       1
       8628.1186       130.84826       52.284861       1
       8640.0309       70.677524       63.054666       1
       8651.9432       92.528349       50.162026       1
       8663.8556       115.53704       62.300503       1
       8675.7679       78.942307       48.982794       1
       8687.6802       32.741244       49.936392       1
       8699.5926       104.07994       46.970161       1
       8711.5049       49.693088       57.867474       1
       8723.4172       59.683324       45.692124       1
       8735.3296       89.914342       56.130130       1
       8747.2419       84.144645       44.459696       1
       8759.1542       68.994603       54.565841       1
       8771.0665       79.220076       43.483313       1
       8782.9789       99.983759       53.712373       1
       8794.8912       110.25447       42.999298       1
       8806.8035       116.94378       53.150150       1
       8818.7159       86.559151       41.868671       1
       8830.6282       131.84954       51.775422       1
       8842.5405       78.702535       41.007368       1
       8854.4529       116.74549       50.817585       1
       8866.3652       78.814507       40.281567       1
       8878.2775       137.88212       50.127522       1
       8890.1899       89.465949       39.521242       1
       8902.1022       149.09235       49.415386       1
       8914.0145       111.89942       38.761821       1
       8925.9269       143.45367       48.770233       1
       8937.8392       99.186191       38.379514       1
       8949.7515       111.34282       47.297995       1
       8961.6639       105.06232       37.556200       1
       8973.5762       80.319465       53.370652       1
       8985.4885       88.342614       40.297834       1
       8997.4009       61.818019       45.238060       1
       9009.3132       114.75059       40.135598       1
       9021.2255       69.214553       45.032774       1
       9033.1378       80.376063       36.135578       1
       9045.0502       79.586739       44.905357       1
       9056.9625       113.94852       36.144244       1
       9068.8748       116.99881       44.580385       1
       9080.7872       95.132234       35.379306       1
       9092.6995       99.430969       43.929554       1
       9104.6118       103.86068       34.563889       1
       9116.5242       108.40735       42.360715       1
       9128.4365       83.405242       33.716273       1
       9140.3488       94.634408       41.561022       1
       9152.2612       100.77850       33.262851       1
       9164.1735       117.73905       40.989397       1
       9176.0858       91.668240       32.481733       1
       9187.9982       133.94572       40.484957       1
       9199.9105       75.221491       32.011214       1
       9211.8228       86.240244       39.200176       1
       9223.7352       110.57495       31.680538       1
       9235.6475       107.09196       38.911251       1
       9247.5598       103.60394       34.250810       1
       9259.4722       65.882110       38.036770       1
       9271.3845       128.31637       31.027244       1
       9283.2968       108.56868       37.987166       1
       9295.2091       72.814128       30.269950       1
       9307.1215       102.14344       37.502532       1
       9319.0338       103.04465       30.239381       1
       9330.9461       96.863278       37.221663       1
       9342.8585       103.28335       30.023985       1
       9354.7708       83.241268       36.715901       1
       9366.6831       65.671584       29.541957       1
       9378.5955       108.23182       36.725276       1
       9390.5078       113.28077       29.636908       1
       9402.4201       105.65227       36.372826       1
       9414.3325       82.781530       29.015641       1
       9426.2448       81.780545       35.372974       1
       9438.1571       92.468769       28.556231       1
       9450.0695       126.46376       35.206646       1
       9461.9818       103.13810       28.383243       1
       9473.8941       95.115753       34.851641       1
       9485.8065       95.155901       28.099964       1
       9497.7188       79.994919       34.227611       1
       9509.6311       101.31271       27.867312       1
       9521.5435       94.625982       33.999966       1
       9533.4558       80.145256       27.370773       1
       9545.3681       116.10615       34.069259       1
       9557.2804       102.96876       27.288297       1
       9569.1928       101.81566       33.466811       1
       9581.1051       96.824266       26.810184       1
       9593.0174       102.70930       33.126799       1
       9604.9298       92.205684       26.605144       1
       9616.8421       94.962208       32.853008       1
       9628.7544       60.016114       26.011111       1
       9640.6668       134.08639       32.743312       1
       9652.5791       96.643977       26.226022       1
       9664.4914       120.36313       32.456527       1
       9676.4038       109.23601       26.151976       1
       9688.3161       107.77655       32.074272       1
       9700.2284       105.84793       25.841343       1
       9712.1408       142.43205       32.150542       1
       9724.0531       84.990440       25.466031       1
       9735.9654       108.11190       31.602536       1
       9747.8778       116.97241       25.509674       1
       9759.7901       74.213824       31.001842       1
       9771.7024       116.85065       25.310842       1
       9783.6148       73.095950       30.675772       1
       9795.5271       115.03157       25.112951       1
       9807.4394       97.788888       30.764430       1
       9819.3517       93.925432       31.886622       1
       9831.2641       119.48324       30.825790       1
       9843.1764       89.675309       24.695294       1
       9855.0887       96.232353       30.371397       1
       9867.0011       81.373848       24.555080       1
       9878.9134       93.713402       30.232022       1
       9890.8257       88.479716       24.484857       1
       9902.7381       100.75221       30.363732       1
       9914.6504       71.659938       24.264062       1
       9926.5627       78.283346       29.956269       1
       9938.4751       88.509814       24.230269       1
       9950.3874       95.296522       29.834323       1
       9962.2997       97.979353       26.398346       1
       9974.2121       91.402339       29.400878       1
       9986.1244       105.68936       24.360230       1
       9998.0367       114.68426       29.366777       1
       10009.949       117.34203       23.497632       1
       10021.861       109.25991       28.988732       1
       10033.774       82.878761       23.143282       1
       10045.686       107.30117       28.648849       1
       10057.598       72.732309       22.957865       1
       10069.511       64.005400       23.744067       1
       10081.423       83.559292       23.090442       1
       10093.335       114.66007       28.887139       1
       10105.248       80.794857       23.028965       1
       10117.160       100.68213       28.595828       1
       10129.072       91.161963       23.033052       1
       10140.985       108.25588       28.388963       1
       10152.897       115.15157       23.188150       1
       10164.809       99.513977       28.480003       1
       10176.722       89.986169       24.950524       1
       10188.634       127.86346       28.735110       1
       10200.546       66.912725       24.508140       1
       10212.459       84.637820       28.011310       1
       10224.371       78.088006       24.382954       1
       10236.283       104.97755       27.995617       1
       10248.196       111.57775       22.372611       1
       10260.108       112.17106       28.065299       1
       10272.020       98.741754       22.048804       1
       10283.933       66.588832       26.949351       1
       10295.845       89.565102       21.555650       1
       10307.757       71.480592       26.797448       1
       10319.670       106.43590       28.074626       1
       10331.582       76.665495       26.545571       1
       10343.494       79.353779       21.472005       1
       10355.407       105.48884       26.548981       1
       10367.319       83.402684       21.459188       1
       10379.231       88.665685       26.626195       1
       10391.144       86.155178       21.620921       1
       10403.056       92.910668       26.833034       1
       10414.968       101.36563       21.439254       1
       10426.881       92.480692       26.489009       1
       10438.793       89.351228       21.202764       1
       10450.705       131.72885       26.629922       1
       10462.618       94.957141       21.251350       1
       10474.530       110.63558       26.603733       1
       10486.442       84.261706       21.130625       1
       10498.355       92.041466       26.373078       1
       10510.267       93.962245       21.275597       1
       10522.179       112.35892       26.657062       1
       10534.092       115.00287       21.432344       1
       10546.004       107.60443       26.629123       1
       10557.916       88.268044       21.175205       1
       10569.829       96.757940       26.172486       1
       10581.741       103.71925       21.173278       1
       10593.653       78.442889       26.032839       1
       10605.566       111.97950       21.100857       1
       10617.478       89.457335       26.048773       1
       10629.390       86.773391       26.102580       1
       10641.303       102.75431       25.768379       1
       10653.215       112.93398       20.695119       1
       10665.127       104.44765       25.606401       1
       10677.040       93.033842       20.458693       1
       10688.952       121.82326       25.744810       1
       10700.864       109.44528       20.556841       1
       10712.777       90.898424       25.445469       1
       10724.689       115.42805       20.457538       1
       10736.601       86.738740       25.378378       1
       10748.514       103.18582       20.161625       1
       10760.426       107.85510       25.530616       1
       10772.338       110.10983       20.343960       1
       10784.251       89.417743       25.310269       1
       10796.163       98.200494       20.149450       1
       10808.075       61.556252       24.889202       1
       10819.988       97.963755       20.166392       1
       10831.900       101.81167       25.224618       1
       10843.812       105.36677       20.141982       1
       10855.725       96.455885       25.043374       1
       10867.637       105.90454       20.122927       1
       10879.549       105.60824       24.786966       1
       10891.462       100.52012       19.956009       1
       10903.374       105.76054       24.587749       1
       10915.286       126.37217       20.089698       1
       10927.199       111.83017       24.977866       1
       10939.111       125.25071       20.141920       1
       10951.023       107.91641       24.927027       1
       10962.936       93.488409       19.812037       1
       10974.848       131.72015       25.127297       1
       10986.760       117.14051       20.101289       1
       10998.673       85.385726       24.724275       1
       11010.585       99.589466       19.939253       1
       11022.497       108.59907       24.798481       1
       11034.410       107.05488       19.937443       1
       11046.322       85.773497       24.561032       1
       11058.234       104.93588       19.864718       1
       11070.147       122.22750       24.884780       1
       11082.059       116.62553       21.827681       1
       11093.971       92.773662       24.569944       1
       11105.884       101.35041       19.766038       1
       11117.796       104.49227       24.664366       1
       11129.708       99.068580       19.776581       1
       11141.621       88.060070       24.581241       1
       11153.533       108.31687       19.890545       1
       11165.445       103.72164       24.619239       1
       11177.358       91.001432       19.733494       1
       11189.270       92.832619       24.204377       1
       11201.182       110.16811       19.761013       0
       11213.095       102.96877       24.203584       0
       11225.007       94.997519       19.577292       0
       11236.919       110.75547       24.251266       0
       11248.832       93.725809       19.493831       0
       11260.744       74.451236       23.987757       0
       11272.656       91.216652       19.548320       0
       11284.569       112.91001       24.322767       0
       11296.481       101.88202       19.567492       0
       11308.393       78.317299       20.209973       0
       11320.306       104.18707       19.805032       0
       11332.218       116.28352       25.085422       0
       11344.130       86.032392       20.641751       0
       11356.043       114.09124       26.441589       0
       11367.955       81.250231       22.559576       0
       11379.867       106.89374       30.127802       0
       11391.780       78.106032       26.197306       0
       11403.692       50.070288       28.667223       0
       11415.604       96.787456       32.266217       0
       11427.517       118.86911       45.015901       0
       11439.429       109.90337       41.021109       0
       11451.341       73.010878       57.221574       0
       11463.254       90.315273       51.770470       0
       11475.166       43.802097       71.740661       0
       11487.078       158.62868       65.349329       0
       11498.991       149.19456       88.984038       0
       11510.903       180.03243       79.955744       0
       11522.815       144.41806       109.64259       0
       11534.728       176.28658       100.92735       0
       11546.640       299.18047       146.01273       0
       11558.552       203.26038       139.09361       0
       11570.465       64.237330       206.04787       0
       11582.377       153.45716       223.04881       0
       11594.289       81.971464       312.75976       0
       11606.202       29.905688       313.98278       0
       11618.114       49.669890       474.26263       0
       11630.026      -312.81472       461.28759       0
       11641.939      -11.554873       679.13421       0
       11653.851       65.755470       667.66735       0
       11665.763      -347.51923       1033.1946       0
       11677.676       1304.8459       1105.3768       0
       11689.588       190.28123       1758.6944       0
       11701.500       1813.8112       1847.8701       0
       11713.413      -69.631465       2966.6226       0
       11725.325       735.56707       3075.3025       0
       11737.237       258.76730       4412.3673       0
       11749.150       1734.4797       3768.3707       0
       11761.062       1002.6167       4713.9695       0
