#WAVELENGTH FLUX ERROR MASK
       7465.3283      -18334.146       27278.200       0
       7477.2038       17524.087       19294.617       0
       7489.0793       10555.886       22858.067       0
       7500.9548       15422.952       15430.610       0
       7512.8303       7518.0489       16572.795       0
       7524.7058      -2341.8333       10974.771       0
       7536.5813       3788.6715       11799.432       0
       7548.4568       872.29933       7558.2976       0
       7560.3323       315.51193       8583.0942       0
       7572.2078      -166.83952       4734.2569       0
       7584.0833       292.08672       4833.8447       0
       7595.9588      -389.86109       3170.5579       0
       7607.8344       1115.0251       3375.2405       0
       7619.7099       623.98365       2289.7731       0
       7631.5854       1003.3229       2507.0793       0
       7643.4609       1720.1241       1726.7009       0
       7655.3364      -2124.6975       1844.5665       0
       7667.2119      -177.02342       1244.3630       0
       7679.0874       18.188878       1423.3694       0
       7690.9629       1407.1063       883.40427       0
       7702.8384       481.56371       1010.4541       0
       7714.7139       218.75964       677.68477       0
       7726.5894       430.80262       713.19700       0
       7738.4649       587.00702       640.89674       0
       7750.3404      0.13734958       584.88243       0
       7762.2159       459.93133       429.63867       0
       7774.0914       521.67992       503.82769       0
       7785.9669       76.844471       359.60353       0
       7797.8424       309.95097       420.70282       0
       7809.7179       357.53736       301.30565       0
       7821.5934       185.89322       346.14975       0
       7833.4689       259.21710       245.16976       0
       7845.3444       199.96311       284.51557       0
       7857.2199       295.17506       200.90010       0
       7869.0954       467.26594       234.93489       0
       7880.9709       167.94122       168.92997       0
       7892.8464       264.10597       202.53475       0
       7904.7219       235.15961       148.37715       0
       7916.5974       195.04113       178.94998       0
       7928.4729       206.89255       132.64432       0
       7940.3484       251.39378       162.12861       0
       7952.2239       163.62230       120.84397       0
       7964.0994       162.24103       145.58166       0
       7975.9749       216.50503       112.41720       0
       7987.8504       156.52383       134.48993       0
       7999.7259       197.12831       104.54089       0
       8011.6014       189.21575       126.43971       0
       8023.4769       175.14919       98.527723       0
       8035.3524       124.90564       119.44161       0
       8047.2279       152.07627       93.590438       0
       8059.1034       218.89916       115.84985       0
       8070.9789       214.89726       90.742962       0
       8082.8544       187.20952       112.07425       0
       8094.7300       190.33276       87.540525       0
       8106.6055       125.82787       107.40561       0
       8118.4810       145.71029       84.725754       0
       8130.3565       39.360378       102.95432       0
       8142.2320       152.64195       81.963865       0
       8154.1075       60.114909       100.97156       1
       8165.9830       160.52151       79.516601       1
       8177.8585       175.53023       98.009973       1
       8189.7340       133.07254       76.888269       1
       8201.6095       171.20486       93.925572       1
       8213.4850       66.370616       73.285864       1
       8225.3605       171.30859       89.898985       1
       8237.2360       168.13655       70.572403       1
       8249.1115       133.07360       85.719978       1
       8260.9870       134.85797       66.701191       1
       8272.8625       136.04253       81.475274       1
       8284.7380       123.08329       63.680485       1
       8296.6135       155.73054       78.016377       1
       8308.4890       100.01165       61.014211       1
       8320.3645       130.90414       75.004476       1
       8332.2400       136.65370       67.668002       1
       8344.1155       165.07099       73.525346       1
       8355.9910       167.87753       57.849206       1
       8367.8665       145.12509       70.770096       1
       8379.7420       81.993674       56.571116       1
       8391.6175       141.69966       69.417347       1
       8403.4930       126.95066       54.731743       1
       8415.3685       156.67628       68.506081       1
       8427.2440       127.40283       53.272427       1
       8439.1195       133.36336       64.877609       1
       8450.9950       123.09216       51.643011       1
       8462.8705       83.248725       61.406164       1
       8474.7460       163.09324       50.598342       1
       8486.6215       64.506620       60.362244       1
       8498.4970       72.435797       48.551712       1
       8510.3725       95.388025       60.208897       1
       8522.2480       113.80110       47.974862       1
       8534.1235       144.89038       58.862988       1
       8545.9990       84.934135       48.755687       1
       8557.8745       118.39203       57.752565       1
       8569.7501       113.07405       48.824412       1
       8581.6256       78.544771       56.935393       1
       8593.5011       99.778772       46.123946       1
       8605.3766       109.70502       57.549192       1
       8617.2521       118.41972       45.998288       1
       8629.1276       129.66392       56.632266       1
       8641.0031       111.37100       45.320730       1
       8652.8786       146.97376       56.315594       1
       8664.7541       108.42740       44.739331       1
       8676.6296       112.27961       55.076416       1
       8688.5051       103.02232       43.726445       1
       8700.3806       95.224337       52.593220       1
       8712.2561       80.789170       41.681797       1
       8724.1316       116.29176       51.128343       1
       8736.0071       85.174438       40.525892       1
       8747.8826       89.394863       49.831213       1
       8759.7581       128.50878       39.720662       1
       8771.6336       86.189345       48.040193       1
       8783.5091       112.68852       38.968908       1
       8795.3846       102.17986       47.387885       1
       8807.2601       117.38197       40.910677       1
       8819.1356       108.41296       46.721408       1
       8831.0111       98.691128       39.373906       1
       8842.8866       86.207841       52.565326       1
       8854.7621       77.035621       36.327509       1
       8866.6376       89.531781       45.032894       1
       8878.5131       106.51055       36.035456       1
       8890.3886       128.13119       44.924021       1
       8902.2641       72.639272       34.807517       1
       8914.1396       82.720537       43.169988       1
       8926.0151       109.82621       34.749059       1
       8937.8906       95.954431       48.803151       1
       8949.7661       86.415102       33.954294       1
       8961.6416       134.64574       42.203788       1
       8973.5171       102.56026       33.387875       1
       8985.3926       109.74271       41.393670       1
       8997.2681       93.694735       32.568850       1
       9009.1436       80.030846       40.959407       1
       9021.0191       92.997175       32.516860       1
       9032.8946       91.143051       40.509448       1
       9044.7701       97.897489       32.293033       1
       9056.6457       139.20921       40.360221       1
       9068.5212       96.232963       32.035561       1
       9080.3967       93.252949       39.824374       1
       9092.2722       112.75130       31.513639       1
       9104.1477       110.22078       39.047786       1
       9116.0232       108.11136       32.548060       1
       9127.8987       131.40223       38.558958       1
       9139.7742       124.91169       30.397918       1
       9151.6497       93.991273       37.663692       1
       9163.5252       105.71846       32.417683       1
       9175.4007       106.70816       36.866195       1
       9187.2762       87.914064       29.135777       1
       9199.1517       79.813148       40.733278       1
       9211.0272       80.196865       28.548626       1
       9222.9027       90.143435       35.316982       1
       9234.7782       91.902355       28.031142       1
       9246.6537       103.69974       35.182871       1
       9258.5292       93.888231       27.933979       1
       9270.4047       107.79925       34.902854       1
       9282.2802       99.399747       30.496159       1
       9294.1557       95.258514       34.658465       1
       9306.0312       107.04931       27.433759       1
       9317.9067       97.567601       40.231902       1
       9329.7822       111.46194       27.142790       1
       9341.6577       83.155207       33.944002       1
       9353.5332       94.014865       26.867463       1
       9365.4087       97.876095       33.898686       1
       9377.2842       83.634744       27.487147       1
       9389.1597       89.050550       33.265173       1
       9401.0352       100.98679       26.376628       1
       9412.9107       96.282938       33.259690       1
       9424.7862       73.547170       25.898003       1
       9436.6617       107.68344       32.872153       1
       9448.5372       118.75287       25.751809       1
       9460.4127       93.671029       32.914091       1
       9472.2882       103.19111       25.464671       1
       9484.1637       104.53033       32.592589       1
       9496.0392       98.109861       25.088667       1
       9507.9147       107.76263       31.655496       1
       9519.7902       87.750799       24.897998       1
       9531.6657       86.126930       31.544139       1
       9543.5413       93.277296       24.529867       1
       9555.4168       82.944014       30.657034       1
       9567.2923       96.990325       24.505344       1
       9579.1678       106.47467       31.004851       1
       9591.0433       89.452874       24.098253       1
       9602.9188       97.951686       30.616976       1
       9614.7943       83.023129       23.750305       1
       9626.6698       71.669016       29.985986       1
       9638.5453       109.51345       23.763948       1
       9650.4208       107.57221       29.953209       1
       9662.2963       103.59890       23.585368       1
       9674.1718       81.787915       29.485017       1
       9686.0473       114.27900       24.002973       1
       9697.9228       93.323313       33.577775       1
       9709.7983       121.51005       23.292650       1
       9721.6738       90.528362       29.260717       1
       9733.5493       91.147691       22.788778       1
       9745.4248       68.857851       28.521997       1
       9757.3003       81.963337       22.673578       1
       9769.1758       96.442682       28.602203       1
       9781.0513       92.913220       22.578210       1
       9792.9268       89.317347       28.344901       1
       9804.8023       106.77461       23.846805       1
       9816.6778       104.62904       28.360053       1
       9828.5533       96.027285       22.348944       1
       9840.4288       95.970381       36.137725       1
       9852.3043       75.292053       22.266589       1
       9864.1798       86.819814       27.831427       1
       9876.0553       85.054840       22.236527       1
       9887.9308       100.99538       27.867892       1
       9899.8063       106.44615       22.312297       1
       9911.6818       90.772733       27.695351       1
       9923.5573       110.21511       22.289231       1
       9935.4328       100.05589       27.640655       1
       9947.3083       98.952692       22.478137       1
       9959.1838       83.834627       27.153140       1
       9971.0593       83.931032       21.518844       1
       9982.9348       74.161269       26.660805       1
       9994.8103       82.381229       21.264838       1
       10006.686       88.501408       26.452471       1
       10018.561       89.247833       22.260691       1
       10030.437       97.551799       26.599395       1
       10042.312       79.278771       20.820883       1
       10054.188       87.002689       26.065028       1
       10066.063       96.515657       24.109363       1
       10077.939       72.238599       26.356606       1
       10089.814       77.516773       20.782658       1
       10101.690       84.190148       26.059665       1
       10113.565       76.589059       20.703007       1
       10125.441       75.223775       25.637549       1
       10137.316       76.885816       20.505255       1
       10149.192       72.215876       25.275667       1
       10161.067       71.878513       20.314480       1
       10172.943       78.791300       25.311335       1
       10184.818       68.296608       20.144195       1
       10196.694       74.280632       25.208734       1
       10208.569       69.076469       20.003069       1
       10220.445       50.642569       24.949777       1
       10232.320       84.446413       19.983318       1
       10244.196       70.616528       24.797287       1
       10256.071       75.665231       19.622090       1
       10267.947       66.532197       24.554994       1
       10279.822       73.855532       19.416508       1
       10291.698       93.045952       24.337464       1
       10303.573       64.485702       19.148489       1
       10315.449       88.442788       23.930220       1
       10327.324       62.257426       19.112818       1
       10339.200       69.088788       23.674067       1
       10351.075       73.523894       19.177275       1
       10362.951       62.228931       23.479667       1
       10374.826       77.369306       19.220089       1
       10386.702       53.939858       23.815956       1
       10398.577       69.205681       19.910955       1
       10410.453       65.693689       23.557206       1
       10422.328       77.863498       19.102383       1
       10434.204       75.672325       23.695922       1
       10446.079       71.883325       18.957977       1
       10457.955       91.838222       23.497927       1
       10469.830       100.07167       19.127618       1
       10481.706       76.603392       23.242783       1
       10493.581       57.708621       18.802252       1
       10505.457       88.057052       23.545205       1
       10517.332       76.822510       18.998501       1
       10529.208       69.548293       23.345300       1
       10541.083       66.673158       18.902769       1
       10552.959       79.453833       23.402210       1
       10564.834       70.020471       18.901136       1
       10576.710       74.558335       23.304467       1
       10588.585       79.253284       18.889046       1
       10600.461       84.678179       23.348077       1
       10612.336       82.495658       18.792405       1
       10624.212       66.789156       23.145031       1
       10636.087       62.787185       18.405563       1
       10647.963       76.494587       22.906426       1
       10659.838       74.473847       18.372592       1
       10671.714       60.364406       22.473760       1
       10683.589       60.811065       18.240656       1
       10695.465       62.883064       22.463330       1
       10707.340       76.408506       18.281166       1
       10719.216       56.868563       22.236791       1
       10731.091       67.704243       19.464245       1
       10742.967       72.843366       22.670180       1
       10754.843       59.363449       18.366938       1
       10766.718       53.175343       22.627844       1
       10778.594       71.531701       18.366553       1
       10790.469       72.131163       22.554004       1
       10802.345       84.744600       18.130793       1
       10814.220       87.700034       22.831733       1
       10826.096       68.359351       17.952151       1
       10837.971       44.487904       22.355663       1
       10849.847       68.411230       17.888813       1
       10861.722       60.283168       22.103590       1
       10873.598       74.460610       17.828542       1
       10885.473       74.657798       22.274830       1
       10897.349       82.274255       17.854251       1
       10909.224       72.365242       22.174256       1
       10921.100       69.944543       17.779492       1
       10932.975       82.133428       22.152658       1
       10944.851       67.585413       17.747147       1
       10956.726       79.187053       22.047666       1
       10968.602       74.461517       17.725450       1
       10980.477       62.596015       21.908745       1
       10992.353       69.949868       17.566139       1
       11004.228       64.818256       21.845993       1
       11016.104       73.320226       18.887145       1
       11027.979       88.110192       25.691957       1
       11039.855       72.283184       17.562721       1
       11051.730       90.344534       22.060797       1
       11063.606       80.779673       17.697902       1
       11075.481       83.581588       22.175200       1
       11087.357       66.905392       17.537388       1
       11099.232       86.241387       22.149440       1
       11111.108       80.232875       17.662513       1
       11122.983       70.416129       22.065982       1
       11134.859       74.148107       17.588293       1
       11146.734       68.041548       22.227041       1
       11158.610       67.437717       17.612657       1
       11170.485       71.998227       21.882000       1
       11182.361       72.089050       17.637421       1
       11194.236       97.251572       25.942116       1
       11206.112       84.183358       18.691156       0
       11217.987       87.209180       22.348386       0
       11229.863       83.643329       17.708003       0
       11241.738       61.950612       21.941025       0
       11253.614       90.127309       17.657818       0
       11265.489       90.872265       22.377323       0
       11277.365       84.953745       17.631111       0
       11289.240       76.620464       22.372264       0
       11301.116       68.693530       17.534232       0
       11312.991       89.894345       22.429714       0
       11324.867       84.110996       17.776660       0
       11336.742       97.026131       23.039862       0
       11348.618       80.551734       18.598376       0
       11360.493       59.541651       24.241070       0
       11372.369       74.929933       20.602581       0
       11384.244       78.048838       27.279805       0
       11396.120       79.024002       23.568633       0
       11407.995       81.539414       32.822482       0
       11419.871       89.015618       28.931730       0
       11431.746       94.759120       42.044980       0
       11443.622       117.46070       38.174277       0
       11455.497       127.00457       53.743447       0
       11467.373       153.33627       50.120415       0
       11479.248       143.75586       67.778395       0
       11491.124       170.81990       58.768555       0
       11502.999       222.42814       82.414894       0
       11514.875       204.30205       73.937515       0
       11526.750       201.63544       101.74750       0
       11538.626       208.93020       90.132263       0
       11550.501       382.62998       133.88930       0
       11562.377       211.65673       123.32557       0
       11574.252       478.40853       188.93268       0
       11586.128       358.79552       182.84827       0
       11598.003       595.25822       283.76601       0
       11609.879       775.61013       280.24671       0
       11621.754       691.70072       429.58903       0
       11633.630       1024.1075       412.48325       0
       11645.505       1103.0872       630.42735       0
       11657.381       1475.1411       597.78941       0
       11669.256       2079.0655       941.18902       0
       11681.132       2047.8279       958.48024       0
       11693.007       1902.9234       1565.0334       0
       11704.883       4508.0829       1595.9803       0
       11716.758       3157.0113       2614.0355       0
       11728.634       6572.3842       2698.9306       0
