#WAVELENGTH FLUX ERROR MASK
       10210.799       6170.2273       3125.2235       0
       10234.281       832.92845       2447.8233       0
       10257.763       1041.4828       2268.2291       0
       10281.244       1100.8659       1795.9531       0
       10304.726       2194.8586       1708.0084       0
       10328.208       1474.3087       1393.0685       0
       10351.690       258.59314       1356.1911       0
       10375.172       1342.2927       1145.7768       0
       10398.654       1831.9453       1143.9902       0
       10422.136       1496.8446       947.79037       0
       10445.617       8.9189868       671.57091       0
       10469.099       197.23204       695.84635       0
       10492.581       1145.3208       648.25004       0
       10516.063       645.11874       498.26373       0
       10539.545       594.90513       461.86669       0
       10563.027       415.49503       366.97982       0
       10586.509       329.77729       351.17734       0
       10609.990       399.56467       290.09224       0
       10633.472       172.03887       280.95575       0
       10656.954       100.06079       229.20744       0
       10680.436       141.50102       147.61008       0
       10703.918       315.78750       176.78013       0
       10727.400      -19.804602       158.19466       0
       10750.882       132.85073       122.08908       0
       10774.363       37.443267       108.46791       0
       10797.845       180.30501       85.435628       0
       10821.327       103.41348       79.185066       0
       10844.809       119.36113       63.946092       0
       10868.291       51.624875       61.392607       0
       10891.773       81.132811       52.094841       0
       10915.255       18.420219       34.564628       0
       10938.736       80.467225       44.989415       0
       10962.218       82.350286       45.649233       0
       10985.700       108.37880       39.708734       0
       11009.182       107.76684       40.044384       1
       11032.664       101.69137       34.333020       1
       11056.146       89.322602       34.693020       1
       11079.627       54.094041       30.053158       1
       11103.109       107.48373       31.634481       1
       11126.591       40.486110       20.190984       1
       11150.073       62.199616       29.017211       1
       11173.555       63.993491       26.286728       1
       11197.037       124.26426       28.731759       1
       11220.519       92.635970       25.771507       1
       11244.000       107.56731       27.893613       1
       11267.482       76.304737       25.044850       1
       11290.964       90.164826       26.991505       1
       11314.446       96.058783       24.870582       1
       11337.928       81.695491       26.539427       1
       11361.410       99.560017       24.348999       1
       11384.892       118.44561       26.321392       1
       11408.373       75.638900       23.551304       1
       11431.855       131.79186       26.124374       1
       11455.337       69.929973       23.303558       1
       11478.819       105.98024       25.541760       1
       11502.301       84.443964       23.249077       1
       11525.783       105.69559       25.284073       1
       11549.265       44.250179       16.213699       1
       11572.746       95.656885       25.102694       1
       11596.228       88.121061       22.925850       1
       11619.710       83.376310       24.378355       1
       11643.192       111.07431       22.761675       1
       11666.674       123.59817       24.557065       1
       11690.156       97.408177       22.075731       1
       11713.638       99.437891       23.641086       1
       11737.119       128.85959       21.870051       1
       11760.601       92.445587       22.951953       1
       11784.083       109.09611       21.234078       1
       11807.565       104.72955       22.727453       1
       11831.047       71.504868       20.536960       1
       11854.529       85.094920       22.077268       1
       11878.011       99.240256       20.283346       1
       11901.492       84.584183       21.715489       1
       11924.974       92.084991       19.986852       1
       11948.456       73.843235       21.481086       1
       11971.938       65.698788       19.459379       1
       11995.420       97.054934       21.248670       1
       12018.902       77.564589       19.268747       1
       12042.384       98.200820       20.991643       1
       12065.865       82.509655       19.136067       1
       12089.347       65.024228       20.388335       1
       12112.829       75.378246       18.837419       1
       12136.311       93.146314       20.552852       1
       12159.793       85.579588       18.686998       1
       12183.275       73.644587       20.011268       1
       12206.756       93.981010       18.599633       1
       12230.238       103.81816       20.109785       1
       12253.720       58.952398       18.004080       1
       12277.202       89.663157       19.710874       1
       12300.684       100.97993       18.261143       1
       12324.166       78.843860       19.383117       1
       12347.648       78.783390       17.756061       1
       12371.129       98.111252       19.373390       1
       12394.611       69.170237       17.595827       1
       12418.093       107.22215       19.376154       1
       12441.575       79.018550       17.501316       1
       12465.057       76.485085       18.847219       1
       12488.539       85.698606       17.363104       1
       12512.021       82.013591       18.641351       1
       12535.502       106.44062       17.513983       1
       12558.984       97.873336       18.874317       1
       12582.466       67.371826       16.985198       1
       12605.948       82.705843       18.579915       1
       12629.430       82.559686       17.037701       1
       12652.912       88.636997       18.539291       1
       12676.394       84.799982       17.000106       1
       12699.875       82.485471       18.302807       1
       12723.357       86.039609       16.817898       1
       12746.839       72.170058       17.941884       1
       12770.321       84.162314       16.583975       1
       12793.803       65.097173       17.600399       1
       12817.285       97.403616       16.511847       1
       12840.767       95.228562       17.851414       1
       12864.248       70.295992       16.168248       1
       12887.730       81.256676       17.567482       1
       12911.212       83.715126       16.144809       1
       12934.694       105.95496       17.689651       1
       12958.176       103.34931       16.224943       1
       12981.658       85.847882       17.265364       1
       13005.140       96.142663       15.955020       1
       13028.621       84.943802       17.098232       1
       13052.103       78.034375       15.556611       1
       13075.585       82.555333       16.775771       1
       13099.067       81.766858       15.428343       1
       13122.549       79.001447       16.609509       1
       13146.031       76.594935       15.274815       1
       13169.512       118.26811       16.924746       1
       13192.994       86.353107       15.247901       1
       13216.476       67.994802       16.179926       1
       13239.958       54.964210       14.740898       1
       13263.440       108.17072       16.526697       1
       13286.922       75.422280       14.841821       1
       13310.404       73.432572       16.063224       1
       13333.885       92.549852       17.048753       1
       13357.367       76.386115       15.990591       1
       13380.849       88.726735       14.777750       1
       13404.331       75.701274       15.875718       1
       13427.813       99.867860       14.641689       1
       13451.295       71.607603       15.695319       1
       13474.777       81.442020       14.531437       1
       13498.258       54.564722       15.353287       1
       13521.740       73.740279       14.277060       1
       13545.222       41.590856       11.970457       1
       13568.704       73.937719       14.333479       1
       13592.186       67.932572       15.480688       1
       13615.668       64.063120       14.112716       1
       13639.150       89.343287       15.733683       1
       13662.631       58.424664       14.202363       1
       13686.113       83.771475       15.660119       1
       13709.595       68.164477       14.324147       1
       13733.077       95.929410       15.796613       1
       13756.559       73.199649       14.348847       1
       13780.041       94.421270       15.841622       1
       13803.523       74.520755       14.413318       1
       13827.004       60.412153       15.398787       1
       13850.486       88.039979       14.509587       1
       13873.968       78.561402       15.517558       1
       13897.450       79.255581       14.332391       1
       13920.932       78.200213       15.530381       1
       13944.414       88.923706       14.272995       1
       13967.896       75.134881       15.224648       1
       13991.377       103.09142       14.367611       1
       14014.859       84.535016       15.286387       1
       14038.341       63.890426       13.891182       1
       14061.823       82.327118       15.142713       1
       14085.305       71.895287       13.815869       1
       14108.787       79.715735       14.861383       1
       14132.269       85.740028       13.868052       1
       14155.750       85.423512       14.832827       1
       14179.232       82.547731       13.755632       1
       14202.714       73.684588       14.852493       1
       14226.196       73.463015       13.617806       1
       14249.678       76.633412       14.722896       1
       14273.160       26.774086       9.3615398       1
       14296.641       75.075114       14.566529       1
       14320.123       87.374100       13.483367       1
       14343.605       72.487654       14.474292       1
       14367.087       95.877103       13.468417       1
       14390.569       85.971689       14.496018       1
       14414.051       84.113096       13.306726       1
       14437.533       54.797892       14.140688       1
       14461.014       74.657261       13.275412       1
       14484.496       74.760173       14.346033       1
       14507.978       81.492769       13.318432       1
       14531.460       79.276928       14.311212       1
       14554.942       76.994734       13.301225       1
       14578.424       34.592810       9.5861830       1
       14601.906       80.381660       13.286525       1
       14625.387       28.402729       9.4756983       1
       14648.869       85.507769       13.366214       1
       14672.351       100.50743       14.672584       1
       14695.833       77.782197       13.317891       1
       14719.315       85.853811       6272657.2       1
       14742.797       80.632323       13.391219       1
       14766.279       81.676261       14.474440       1
       14789.760       90.136788       13.391258       1
       14813.242       87.885715       14.431066       1
       14836.724       84.034466       13.329950       1
       14860.206       87.710099       14.338016       1
       14883.688       90.390847       13.131615       1
       14907.170       66.253389       14.160970       1
       14930.652       107.56315       13.381267       1
       14954.133       79.359341       14.086378       1
       14977.615       63.411205       12.752290       1
       15001.097       76.459259       14.081257       1
       15024.579       77.900464       12.888223       1
       15048.061       67.418590       13.921638       1
       15071.543       84.317378       12.992274       1
       15095.025       73.259199       13.952012       1
       15118.506       104.79492       13.143903       1
       15141.988       85.850624       14.106729       1
       15165.470       85.469521       12.945211       1
       15188.952       71.868567       13.838193       1
       15212.434       70.396085       12.602188       1
       15235.916       78.923284       13.781876       1
       15259.397       77.813933       12.770352       1
       15282.879       68.467321       13.749830       1
       15306.361       60.334198       12.561653       1
       15329.843       73.394944       13.786138       1
       15353.325       84.088311       12.892874       1
       15376.807       72.123889       13.791148       1
       15400.289       88.260007       12.924829       1
       15423.770       94.527355       14.027284       1
       15447.252       63.597918       12.681774       1
       15470.734       72.706891       13.596446       1
       15494.216       94.126203       12.992813       1
       15517.698       85.070552       13.971455       1
       15541.180       76.610497       12.857173       1
       15564.662       86.436157       13.990816       1
       15588.143       62.977755       12.676159       1
       15611.625       64.370117       13.801650       1
       15635.107       87.936366       12.857847       1
       15658.589       64.378264       13.670966       1
       15682.071       94.551238       12.899605       1
       15705.553       58.491550       13.546517       1
       15729.035       78.995883       12.688487       1
       15752.516       33.033544       10.204489       1
       15775.998       84.309118       12.668584       1
       15799.480       79.140736       13.699072       1
       15822.962       72.269706       12.591291       1
       15846.444       69.299862       13.566932       1
       15869.926       88.193661       12.770103       1
       15893.408       77.295521       13.757456       1
       15916.889       85.160853       12.792914       1
       15940.371       69.513942       13.513778       1
       15963.853       90.918133       12.917777       1
       15987.335       79.915511       13.808218       1
       16010.817       73.243859       12.707039       1
       16034.299       81.745352       13.819401       1
       16057.781       77.923828       12.610448       1
       16081.262       76.262791       13.781549       1
       16104.744       31.180156       9.0733001       1
       16128.226       76.218720       13.852545       1
       16151.708       38.817824       9.2086480       1
       16175.190       82.951753       13.986138       1
       16198.672       80.652538       12.955886       1
       16222.153       85.731877       14.124994       1
       16245.635       80.554407       13.038762       1
       16269.117       65.133556       13.989425       1
       16292.599       71.932887       13.068445       1
       16316.081       76.071801       14.198670       1
       16339.563       89.735798       13.290908       1
       16363.045       73.242483       14.209535       1
       16386.526       101.41356       13.426080       1
       16410.008       90.570090       14.408348       1
       16433.490       73.054078       13.138669       1
       16456.972       75.316676       14.237166       1
       16480.454       81.192346       13.378251       1
       16503.936       96.829291       14.869920       1
       16527.418       81.612275       13.782345       1
       16550.899       89.589024       15.462069       1
       16574.381       78.817458       14.599886       1
       16597.863       94.662501       16.840385       1
       16621.345       75.550089       16.163846       1
       16644.827       65.223915       18.644380       1
       16668.309       106.65681       18.978419       1
       16691.791       79.728897       22.337537       1
       16715.272       90.231964       22.906390       1
       16738.754       86.220787       27.870221       1
       16762.236       75.727471       28.842273       0
       16785.718       103.27044       36.089738       0
       16809.200       103.39990       37.874603       0
       16832.682       78.441391       46.659133       0
       16856.164       151.80052       49.002085       0
       16879.645       134.62595       59.987595       0
       16903.127       174.75546       62.033415       0
       16926.609       144.91002       74.941823       0
       16950.091       142.78831       77.307574       0
       16973.573       163.83788       93.519309       0
       16997.055       195.64908       96.629261       0
       17020.537       130.34805       115.72512       0
       17044.018       204.59956       120.57116       0
       17067.500       329.24647       145.42635       0
       17090.982       268.54394       148.99587       0
       17114.464       515.51457       184.12503       0
       17137.946       346.46155       189.49459       0
       17161.428       525.09363       238.12488       0
       17184.910       584.85677       252.68106       0
       17208.391       692.17794       318.34826       0
       17231.873       518.09988       330.82061       0
       17255.355       972.93870       411.25113       0
       17278.837       1200.8435       426.05745       0
       17302.319       865.33353       509.83657       0
       17325.801       783.36831       517.89493       0
       17349.282       1138.8024       621.89484       0
       17372.764       173.46371       624.98580       0
       17396.246       819.92343       772.11468       0
       17419.728       1482.7927       779.78478       0
       17443.210       2150.7854       928.01526       0
       17466.692       1544.7365       951.25723       0
       17490.174       2439.2488       1170.2772       0
       17513.655       1455.8007       1310.1303       0
