#WAVELENGTH FLUX ERROR MASK
       7465.3283       16493.742       31633.572       0
       7477.2038       485.70362       19221.544       0
       7489.0793       10023.748       22573.785       0
       7500.9548      -4438.8137       15326.415       0
       7512.8303       3775.2651       16198.863       0
       7524.7058      -1736.3592       11047.289       0
       7536.5813       2758.5207       11764.856       0
       7548.4568       1800.9655       7577.2602       0
       7560.3323       2231.3560       7547.4096       0
       7572.2078       829.87075       4813.9048       0
       7584.0833       444.68340       4880.4510       0
       7595.9588       204.60121       3383.3407       0
       7607.8344      -235.78103       3380.5415       0
       7619.7099       344.39944       2357.9186       0
       7631.5854       497.45671       2685.8059       0
       7643.4609       573.36936       1764.2848       0
       7655.3364       1300.1788       1854.2093       0
       7667.2119       66.208037       1251.8687       0
       7679.0874       231.37487       1360.7839       0
       7690.9629       553.58109       913.79853       0
       7702.8384       768.05588       972.72529       0
       7714.7139       317.63587       643.41084       0
       7726.5894      -106.83698       702.99010       0
       7738.4649       302.49882       531.84827       0
       7750.3404       191.65847       579.83618       0
       7762.2159       192.39947       430.04327       0
       7774.0914       663.14986       502.18213       0
       7785.9669       241.16156       364.82276       0
       7797.8424       345.00553       417.78393       0
       7809.7179       256.09294       303.64221       0
       7821.5934       26.343460       340.06008       0
       7833.4689       335.64117       246.16235       0
       7845.3444       179.96183       278.46706       0
       7857.2199       208.10935       211.67879       0
       7869.0954       188.06300       230.16655       0
       7880.9709       273.54261       171.02069       0
       7892.8464       256.68139       197.77536       0
       7904.7219       133.65433       147.66961       0
       7916.5974       128.53360       176.79086       0
       7928.4729       218.35447       133.32777       0
       7940.3484       102.82726       160.48562       0
       7952.2239       204.88180       120.94086       0
       7964.0994       196.14012       156.07399       0
       7975.9749       141.66245       111.90686       0
       7987.8504       136.37671       143.61000       0
       7999.7259       165.64661       104.30921       0
       8011.6014       103.61266       133.37300       0
       8023.4769       137.71636       97.928761       0
       8035.3524       164.02761       119.96443       0
       8047.2279       173.36016       93.692368       0
       8059.1034       108.53690       115.60035       0
       8070.9789       169.36933       91.361845       0
       8082.8544       121.57420       111.68596       0
       8094.7300       176.48164       97.753193       0
       8106.6055       138.69511       108.79996       0
       8118.4810       115.76459       84.524010       0
       8130.3565       152.32543       104.93306       0
       8142.2320       117.31247       81.777546       0
       8154.1075       182.36288       102.37540       1
       8165.9830       147.69105       79.026476       1
       8177.8585       139.27167       98.121713       1
       8189.7340       152.66195       78.121085       1
       8201.6095       81.683965       93.550799       1
       8213.4850       163.84641       73.870842       1
       8225.3605       68.183110       89.400943       1
       8237.2360       139.54552       70.197994       1
       8249.1115       128.54092       85.770674       1
       8260.9870       121.79860       69.176462       1
       8272.8625       142.63932       81.307441       1
       8284.7380       110.82579       63.538170       1
       8296.6135       146.32281       77.804697       1
       8308.4890       113.46842       60.885535       1
       8320.3645       117.32662       75.050678       1
       8332.2400       111.71565       58.801116       1
       8344.1155       96.534891       72.484529       1
       8355.9910       93.953317       57.892087       1
       8367.8665       94.880230       81.052322       1
       8379.7420       122.09191       56.214198       1
       8391.6175       108.07805       69.610412       1
       8403.4930       101.91001       54.455909       1
       8415.3685       101.30884       68.095527       1
       8427.2440       116.06244       52.982682       1
       8439.1195       134.43318       65.480706       1
       8450.9950       102.96404       51.151296       1
       8462.8705       109.86087       62.906187       1
       8474.7460       131.42998       50.030795       1
       8486.6215       114.30005       61.692116       1
       8498.4970       116.93446       48.670606       1
       8510.3725       108.50573       60.111699       1
       8522.2480       106.92157       47.465157       1
       8534.1235       130.30425       60.361965       1
       8545.9990       73.164797       48.603981       1
       8557.8745       95.792847       60.585035       1
       8569.7501       120.70547       49.482447       1
       8581.6256       119.40740       57.580462       1
       8593.5011       96.783278       45.960623       1
       8605.3766       116.55125       57.414779       1
       8617.2521       110.11727       45.799075       1
       8629.1276       92.434390       56.802367       1
       8641.0031       104.98882       46.972382       1
       8652.8786       92.074405       56.025529       1
       8664.7541       97.187341       44.476822       1
       8676.6296       103.05872       60.367081       1
       8688.5051       118.14940       46.809616       1
       8700.3806       103.36608       55.774001       1
       8712.2561       112.91455       41.728341       1
       8724.1316       106.53182       56.340846       1
       8736.0071       89.788413       40.096126       1
       8747.8826       95.632174       49.746376       1
       8759.7581       99.807014       39.156629       1
       8771.6336       105.51147       48.602686       1
       8783.5091       104.56115       38.307954       1
       8795.3846       113.04967       47.801102       1
       8807.2601       86.889279       42.771210       1
       8819.1356       88.548344       46.772619       1
       8831.0111       96.225248       37.096725       1
       8842.8866       114.91117       46.486383       1
       8854.7621       77.442187       36.247414       1
       8866.6376       72.382497       45.297506       1
       8878.5131       113.38811       37.043261       1
       8890.3886       100.70140       44.204100       1
       8902.2641       86.669916       34.897515       1
       8914.1396       102.78064       43.909636       1
       8926.0151       96.905868       35.841057       1
       8937.8906       84.241925       46.504100       1
       8949.7661       86.975261       33.761615       1
       8961.6416       104.01762       42.014887       1
       8973.5171       94.886598       33.305168       1
       8985.3926       108.54598       41.313110       1
       8997.2681       94.954645       32.715673       1
       9009.1436       106.30824       40.882810       1
       9021.0191       93.515168       32.661073       1
       9032.8946       83.307078       40.334428       1
       9044.7701       97.071374       32.303913       1
       9056.6457       100.50924       39.878685       1
       9068.5212       88.207196       31.887191       1
       9080.3967       72.194237       45.997760       1
       9092.2722       108.99262       31.515037       1
       9104.1477       100.47334       39.192902       1
       9116.0232       77.858033       30.978680       1
       9127.8987       77.684933       38.034081       1
       9139.7742       79.866059       30.192474       1
       9151.6497       99.867397       37.188240       1
       9163.5252       101.32610       30.587437       1
       9175.4007       96.325384       36.880968       1
       9187.2762       78.192128       29.002846       1
       9199.1517       109.50173       38.750843       1
       9211.0272       85.094000       29.356390       1
       9222.9027       94.539330       35.408050       1
       9234.7782       88.996898       27.881130       1
       9246.6537       88.284131       35.013370       1
       9258.5292       75.817141       29.945548       1
       9270.4047       110.26296       35.191369       1
       9282.2802       86.904490       27.532585       1
       9294.1557       81.600370       34.099835       1
       9306.0312       80.129061       27.145810       1
       9317.9067       96.481490       34.343748       1
       9329.7822       88.756992       26.898315       1
       9341.6577       82.151217       34.198743       1
       9353.5332       104.12929       28.384712       1
       9365.4087       89.039677       33.648679       1
       9377.2842       93.129120       26.573151       1
       9389.1597       93.217801       33.083701       1
       9401.0352       85.793010       26.211920       1
       9412.9107       78.811556       32.673961       1
       9424.7862       82.586001       25.892846       1
       9436.6617       92.329460       32.296196       1
       9448.5372       89.632250       25.737493       1
       9460.4127       79.873851       34.425994       1
       9472.2882       107.10512       26.346930       1
       9484.1637       97.967676       36.349467       1
       9496.0392       94.216844       25.030675       1
       9507.9147       86.373112       31.568391       1
       9519.7902       76.035812       26.730060       1
       9531.6657       102.46807       32.686376       1
       9543.5413       85.211032       24.529239       1
       9555.4168       80.990113       31.808255       1
       9567.2923       82.831326       24.307758       1
       9579.1678       70.225400       30.082898       1
       9591.0433       93.493126       24.166311       1
       9602.9188       83.525123       30.498652       1
       9614.7943       80.636368       23.762197       1
       9626.6698       96.718779       30.241406       1
       9638.5453       88.951620       23.750049       1
       9650.4208       96.696863       30.058668       1
       9662.2963       82.393705       24.056218       1
       9674.1718       107.59088       32.389341       1
       9686.0473       91.264663       23.441988       1
       9697.9228       100.85886       29.251570       1
       9709.7983       84.525195       23.128296       1
       9721.6738       104.76577       29.025361       1
       9733.5493       81.143158       23.808499       1
       9745.4248       102.53791       28.872126       1
       9757.3003       89.199541       23.550049       1
       9769.1758       77.786718       28.368384       1
       9781.0513       91.831257       22.713877       1
       9792.9268       83.510493       28.159488       1
       9804.8023       74.666770       23.438107       1
       9816.6778       82.057744       27.838499       1
       9828.5533       75.834181       23.407938       1
       9840.4288       91.261018       27.897935       1
       9852.3043       74.661459       22.224074       1
       9864.1798       94.984932       28.035723       1
       9876.0553       69.902285       22.876924       1
       9887.9308       87.355854       27.916767       1
       9899.8063       70.308791       22.070266       1
       9911.6818       81.830716       27.751263       1
       9923.5573       78.941846       22.403962       1
       9935.4328       68.356589       27.389913       1
       9947.3083       84.507522       21.816444       1
       9959.1838       71.009872       27.200629       1
       9971.0593       83.026419       21.510144       1
       9982.9348       76.344813       26.798604       1
       9994.8103       83.344974       21.233261       1
       10006.686       83.782533       26.444229       1
       10018.561       72.851741       20.945893       1
       10030.437       68.484386       26.291670       1
       10042.312       73.934339       20.822164       1
       10054.188       80.741574       26.114089       1
       10066.063       68.327701       20.734238       1
       10077.939       77.966389       26.026446       1
       10089.814       62.816282       20.647005       1
       10101.690       65.305442       25.732541       1
       10113.565       61.945928       21.243825       1
       10125.441       85.746364       25.974443       1
       10137.316       68.645980       20.479618       1
       10149.192       79.940203       25.511970       1
       10161.067       72.420816       21.712850       1
       10172.943       56.921242       25.208446       1
       10184.818       64.225658       20.244797       1
       10196.694       71.619944       25.162892       1
       10208.569       69.887188       20.010896       1
       10220.445       59.542553       24.763584       1
       10232.320       60.932975       19.786512       1
       10244.196       70.331422       24.567589       1
       10256.071       74.697664       19.654506       1
       10267.947       68.838960       24.394965       1
       10279.822       63.623565       19.418355       1
       10291.698       64.103530       24.149773       1
       10303.573       65.591593       19.250350       1
       10315.449       66.877381       24.087234       1
       10327.324       65.231934       19.080150       1
       10339.200       58.530373       23.843937       1
       10351.075       51.590878       18.940320       1
       10362.951       62.414216       23.883377       1
       10374.826       67.844503       19.004093       1
       10386.702       65.318695       23.823882       1
       10398.577       62.334569       19.318534       1
       10410.453       50.493634       23.713422       1
       10422.328       67.537652       18.913594       1
       10434.204       67.420163       23.724403       1
       10446.079       65.050387       18.848956       1
       10457.955       57.269706       23.427025       1
       10469.830       72.667251       18.824276       1
       10481.706       68.697402       23.466870       1
       10493.581       54.834055       18.724707       1
       10505.457       54.999493       23.453611       1
       10517.332       60.399326       18.815588       1
       10529.208       66.270067       23.447846       1
       10541.083       62.533627       18.791113       1
       10552.959       62.891318       23.487399       1
       10564.834       58.893492       18.798863       1
       10576.710       68.610708       23.423756       1
       10588.585       56.656411       18.683052       1
       10600.461       71.081733       23.452778       1
       10612.336       67.544244       18.602224       1
       10624.212       62.561879       23.083870       1
       10636.087       71.653053       19.793861       1
       10647.963       70.208791       23.025365       1
       10659.838       61.477950       18.229631       1
       10671.714       77.926732       22.801279       1
       10683.589       54.974454       18.099900       1
       10695.465       68.109732       22.666116       1
       10707.340       62.627491       18.089701       1
       10719.216       49.494899       22.376055       1
       10731.091       64.000030       18.020686       1
       10742.967       47.918991       26.255305       1
       10754.843       67.615303       18.294906       1
       10766.718       53.700712       22.462292       1
       10778.594       67.005370       18.177532       1
       10790.469       51.419419       22.442495       1
       10802.345       53.094198       17.896550       1
       10814.220       59.302248       22.561651       1
       10826.096       72.014789       17.980307       1
       10837.971       68.619448       22.467891       1
       10849.847       61.109675       17.809368       1
       10861.722       65.602718       22.348876       1
       10873.598       63.097781       17.718473       1
       10885.473       63.306761       22.122659       1
       10897.349       67.488545       17.772522       1
       10909.224       55.899680       22.002356       1
       10921.100       62.870545       17.989063       1
       10932.975       60.909608       21.931771       1
       10944.851       66.315951       17.659783       1
       10956.726       62.464747       21.933442       1
       10968.602       70.292954       18.809805       1
       10980.477       60.526776       23.722213       1
       10992.353       61.764335       17.616566       1
       11004.228       64.610653       21.968889       1
       11016.104       68.617929       17.620231       1
       11027.979       73.034582       23.627092       1
       11039.855       71.059969       17.771031       1
       11051.730       59.740822       21.892974       1
       11063.606       75.395791       17.866879       1
       11075.481       76.373679       22.123587       1
       11087.357       71.217259       17.571404       1
       11099.232       69.421461       22.158458       1
       11111.108       69.898556       17.643708       1
       11122.983       74.736718       22.122142       1
       11134.859       73.884683       17.693682       1
       11146.734       64.764753       21.940842       1
       11158.610       68.972480       17.640223       1
       11170.485       76.928523       22.058658       1
       11182.361       73.793646       17.643273       1
       11194.236       73.802429       23.298536       1
       11206.112       70.401679       17.790153       0
       11217.987       77.772188       22.044669       0
       11229.863       76.998035       17.631282       0
       11241.738       71.410465       22.019329       0
       11253.614       79.146912       17.636600       0
       11265.489       69.590688       21.956372       0
       11277.365       76.794345       17.630369       0
       11289.240       81.154584       22.206205       0
       11301.116       75.787851       18.315576       0
       11312.991       67.561146       21.998268       0
       11324.867       79.706978       17.882678       0
       11336.742       77.074075       22.737500       0
       11348.618       81.219275       20.098202       0
       11360.493       74.732042       24.214729       0
       11372.369       80.414889       21.252133       0
       11384.244       87.995587       27.320576       0
       11396.120       85.309980       23.703721       0
       11407.995       94.448232       32.524717       0
       11419.871       101.69553       29.151871       0
       11431.746       124.17340       44.755954       0
       11443.622       120.84612       38.178155       0
       11455.497       162.83645       52.577287       0
       11467.373       107.04198       47.192129       0
       11479.248       175.65978       66.922950       0
       11491.124       175.47504       58.817378       0
       11502.999       183.54058       81.476389       0
       11514.875       209.82804       73.931003       0
       11526.750       205.95038       100.05924       0
       11538.626       236.59832       91.064195       0
       11550.501       360.21811       131.80231       0
       11562.377       354.47000       124.73116       0
       11574.252       329.80202       186.50105       0
       11586.128       393.43472       183.60134       0
       11598.003       592.34565       308.32183       0
       11609.879       723.08076       280.29961       0
       11621.754       922.79997       432.84666       0
       11633.630       1000.4522       414.68296       0
       11645.505       1117.2437       723.02842       0
       11657.381       943.20675       597.90609       0
       11669.256       2485.3485       942.82711       0
       11681.132       2370.4301       958.48011       0
       11693.007       2459.2862       1550.9498       0
       11704.883       3694.2787       1599.6561       0
       11716.758       4299.4859       2612.5495       0
       11728.634       5885.7790       2697.5059       0
