#WAVELENGTH FLUX ERROR MASK
       7532.5043       7965.1627       13555.434       0
       7544.7112      -2470.1503       8782.7675       0
       7556.9180      -6713.9107       8590.7305       0
       7569.1249       442.75631       5505.4687       0
       7581.3317      -1296.7168       5443.8684       0
       7593.5386       605.64504       3570.7576       0
       7605.7454       2237.5997       3714.2071       0
       7617.9523      -223.15560       2545.3799       0
       7630.1592      -1487.7432       2693.2628       0
       7642.3660       2487.6078       1904.8731       0
       7654.5729       3138.9750       2021.1747       0
       7666.7797      -171.57162       1372.5696       0
       7678.9866       2113.4945       1431.7996       0
       7691.1934       290.64391       949.54548       0
       7703.4003       817.49587       1001.5066       0
       7715.6072       437.49364       693.56927       0
       7727.8140      -330.96779       743.99656       0
       7740.0209       474.33370       549.21615       0
       7752.2277       163.30326       612.14452       0
       7764.4346       248.55157       457.36715       0
       7776.6414       327.66754       528.24580       0
       7788.8483       166.00444       387.66047       0
       7801.0552      -232.91722       431.94406       0
       7813.2620      -120.77262       312.72110       0
       7825.4689      -160.32605       350.83969       0
       7837.6757       245.04230       256.55629       0
       7849.8826       143.11811       285.64782       0
       7862.0895       274.27095       210.13884       0
       7874.2963      -72.443472       234.42751       0
       7886.5032       348.13693       178.16106       0
       7898.7100      -78.457710       203.60527       0
       7910.9169       155.81039       155.95683       0
       7923.1237      -27.931222       180.83262       0
       7935.3306       61.146260       139.73396       0
       7947.5375       27.030373       165.02493       0
       7959.7443       139.19094       127.57030       0
       7971.9512       13.243265       150.82612       0
       7984.1580      -34.796582       117.14239       0
       7996.3649      -23.884369       139.99842       0
       8008.5717       74.404989       110.02242       0
       8020.7786       107.82682       132.38289       0
       8032.9855       88.617923       104.54181       0
       8045.1923       187.15831       126.52179       0
       8057.3992      -15.105865       98.760422       0
       8069.6060       138.90708       122.13047       0
       8081.8129       119.40616       96.421915       0
       8094.0197       111.12887       117.90484       0
       8106.2266       86.826836       93.042433       0
       8118.4335       179.98836       114.66292       0
       8130.6403       115.40461       90.004652       0
       8142.8472       74.285030       109.29980       0
       8155.0540       134.81686       87.091357       1
       8167.2609       148.93336       106.52674       1
       8179.4677       154.72264       84.224349       1
       8191.6746       98.651335       102.57528       1
       8203.8815       91.979398       80.590125       1
       8216.0883       6.9630785       97.191358       1
       8228.2952       95.364467       76.781714       1
       8240.5020       147.76977       93.021087       1
       8252.7089       138.29562       73.575324       1
       8264.9157       79.118412       87.980745       1
       8277.1226       99.901889       69.494822       1
       8289.3295       94.071485       84.531362       1
       8301.5363       110.80214       66.569482       1
       8313.7432       67.607415       80.575366       1
       8325.9500       72.560354       63.720276       1
       8338.1569       154.31349       78.976197       1
       8350.3637       104.91139       62.211081       1
       8362.5706       59.919465       75.767752       1
       8374.7775       113.15062       60.853308       1
       8386.9843       131.76019       74.537297       1
       8399.1912       99.037726       59.028973       1
       8411.3980       152.62454       72.908610       1
       8423.6049       82.386505       57.273968       1
       8435.8117       46.845073       69.380864       1
       8448.0186       112.45675       55.558872       1
       8460.2255       148.71466       68.138200       1
       8472.4323       69.339750       53.497965       1
       8484.6392       126.45031       66.254348       1
       8496.8460       129.83860       58.853963       1
       8509.0529       112.33232       64.805619       1
       8521.2597       89.545801       51.335649       1
       8533.4666       155.34210       63.768101       1
       8545.6735       99.524305       50.185249       1
       8557.8803       18.252417       61.625953       1
       8570.0872       131.30343       50.453785       1
       8582.2940       114.47618       62.187007       1
       8594.5009       123.37522       50.013536       1
       8606.7077       134.30552       61.953373       1
       8618.9146       30.724411       48.982439       1
       8631.1215       95.233795       65.232923       1
       8643.3283       105.85495       49.083285       1
       8655.5352       110.21176       64.270277       1
       8667.7420       124.06272       48.037739       1
       8679.9489       135.28949       58.920960       1
       8692.1557       87.613585       46.435968       1
       8704.3626       149.96270       56.960587       1
       8716.5695       124.82460       44.910902       1
       8728.7763       104.24949       54.431956       1
       8740.9832       119.10977       43.323179       1
       8753.1900       85.321580       52.795315       1
       8765.3969       69.606643       41.939118       1
       8777.6037       98.717606       51.905343       1
       8789.8106       116.00912       41.649558       1
       8802.0175       116.50511       51.426856       1
       8814.2243       109.39048       40.799138       1
       8826.4312       130.92937       50.281878       1
       8838.6380       85.755740       39.660184       1
       8850.8449       121.85497       49.212504       1
       8863.0517       64.201478       42.924460       1
       8875.2586       100.71556       47.906168       1
       8887.4655       116.74189       38.270423       1
       8899.6723       78.565405       47.085101       1
       8911.8792       81.739594       37.674163       1
       8924.0860       161.77589       47.126240       1
       8936.2929       119.80502       37.171445       1
       8948.4997       70.775817       45.162642       1
       8960.7066       103.11428       36.508647       1
       8972.9135       133.36634       44.937561       1
       8985.1203       92.832981       35.700454       1
       8997.3272       127.92652       44.478630       1
       9009.5340       104.71529       35.293984       1
       9021.7409       103.40199       43.697209       1
       9033.9477       120.56305       35.189375       1
       9046.1546       49.878982       43.174396       1
       9058.3615       84.411456       34.752458       1
       9070.5683       111.61624       43.039590       1
       9082.7752       55.369541       33.923532       1
       9094.9820       83.201058       41.952302       1
       9107.1889       129.93892       33.953565       1
       9119.3957       104.14366       41.034854       1
       9131.6026       120.08581       37.922807       1
       9143.8095       105.56377       40.510753       1
       9156.0163       100.83427       32.270589       1
       9168.2232       102.30544       39.592962       1
       9180.4300       115.89952       31.856460       1
       9192.6369       110.97055       38.935946       1
       9204.8437       122.43599       35.911656       1
       9217.0506       112.39873       38.427548       1
       9229.2575       75.996785       30.605503       1
       9241.4643       93.448511       37.520432       1
       9253.6712       126.89114       30.434710       1
       9265.8780       134.34465       37.911997       1
       9278.0849       99.319723       29.695169       1
       9290.2917       82.158830       36.959824       1
       9302.4986       91.424140       29.453117       1
       9314.7055       97.790418       36.678946       1
       9326.9123       92.974064       29.385479       1
       9339.1192       67.251996       36.189472       1
       9351.3260       93.095450       29.089907       1
       9363.5329       83.691976       35.937483       1
       9375.7397       85.150864       28.833461       1
       9387.9466       80.149584       35.547952       1
       9400.1535       108.75428       28.588460       1
       9412.3603       110.04911       35.161660       1
       9424.5672       56.175789       28.531084       1
       9436.7740       56.521215       34.473279       1
       9448.9809       80.247151       27.651827       1
       9461.1877       80.980992       34.071493       1
       9473.3946       84.607640       27.395366       1
       9485.6015       108.28490       34.203337       1
       9497.8083       84.533393       27.027340       1
       9510.0152       85.398772       33.582811       1
       9522.2220       58.879032       28.863427       1
       9534.4289       99.841556       33.230874       1
       9546.6357       83.878131       28.818649       1
       9558.8426       90.444759       32.937770       1
       9571.0495       75.803876       26.100605       1
       9583.2563       38.927043       32.116931       1
       9595.4632       97.347445       26.077062       1
       9607.6700       79.646653       32.029658       1
       9619.8769       78.712494       25.725864       1
       9632.0838       55.655240       22.336580       1
       9644.2906       106.10846       25.793510       1
       9656.4975       76.388963       31.574998       1
       9668.7043       104.52260       25.577243       1
       9680.9112       106.44197       31.531208       1
       9693.1180       101.47767       25.364197       1
       9705.3249       66.821513       30.998278       1
       9717.5318       84.303079       24.981724       1
       9729.7386       109.84990       31.053087       1
       9741.9455       84.382196       24.712703       1
       9754.1523       128.28680       31.063382       1
       9766.3592       96.050236       24.531554       1
       9778.5660       91.551860       30.364009       1
       9790.7729       117.88089       24.654022       1
       9802.9798       86.614218       29.951721       1
       9815.1866       68.988226       24.128923       1
       9827.3935       96.540405       30.181212       1
       9839.6003       68.294393       24.181208       1
       9851.8072       87.169625       30.038037       1
       9864.0140       99.754356       24.189135       1
       9876.2209       91.716860       30.022415       1
       9888.4278       72.605449       23.971955       1
       9900.6346       97.613730       29.651527       1
       9912.8415       106.35005       24.102138       1
       9925.0483       130.81663       29.996707       1
       9937.2552       81.371158       23.621406       1
       9949.4620       63.314573       29.045725       1
       9961.6689       106.34712       23.522573       1
       9973.8758       48.855166       28.367606       1
       9986.0826       131.00789       23.319747       1
       9998.2895       55.100254       28.044055       1
       10010.496       73.254252       22.645671       1
       10022.703       87.004283       28.276319       1
       10034.910       100.81410       31.869408       1
       10047.117       100.65302       28.249934       1
       10059.324       120.39418       22.935511       1
       10071.531       94.871496       28.261920       1
       10083.737       71.280427       22.428946       1
       10095.944       105.30045       28.199089       1
       10108.151       97.994067       22.691212       1
       10120.358       97.253334       28.034869       1
       10132.565       96.589548       22.289970       1
       10144.772       83.980688       27.646289       1
       10156.979       96.353927       22.352412       1
       10169.185       108.71142       27.736923       1
       10181.392       106.74224       22.297001       1
       10193.599       84.450522       27.266056       1
       10205.806       110.38901       22.140680       1
       10218.013       123.21093       27.421204       1
       10230.220       72.583814       21.544648       1
       10242.427       89.937643       26.649286       1
       10254.633       72.327683       21.332009       1
       10266.840       80.694505       26.346457       1
       10279.047       98.732238       21.323014       1
       10291.254       82.641521       26.231477       1
       10303.461       76.012977       20.982963       1
       10315.668       76.905217       26.036895       1
       10327.875       106.74139       21.214375       1
       10340.081       89.551852       26.126855       1
       10352.288       67.050801       20.854802       1
       10364.495       91.666994       25.884911       1
       10376.702       65.501720       20.778953       1
       10388.909       102.36203       26.045822       1
       10401.116       87.228115       20.901866       1
       10413.323       12.829848       18.432959       1
       10425.529       98.817182       20.834276       1
       10437.736       55.234487       25.332144       1
       10449.943       85.432237       20.705776       1
       10462.150       50.159668       25.323153       1
       10474.357       95.742486       20.833113       1
       10486.564       106.02773       25.884649       1
       10498.771       91.317313       20.754662       1
       10510.977       74.506743       25.577994       1
       10523.184       95.220183       20.753165       1
       10535.391       102.61126       25.757266       1
       10547.598       83.054073       20.743550       1
       10559.805       102.15474       25.825160       1
       10572.012       111.53960       20.749379       1
       10584.219       96.117977       26.935937       1
       10596.425       101.38685       20.432195       1
       10608.632       68.681551       26.366171       1
       10620.839       82.142021       20.090847       1
       10633.046       113.50300       24.898319       1
       10645.253       106.33765       20.043463       1
       10657.460       82.814552       24.649292       1
       10669.667       103.36680       22.870756       1
       10681.873       76.893933       24.479071       1
       10694.080       69.264273       22.391870       1
       10706.287       99.506940       24.717418       1
       10718.494       90.234408       19.829983       1
       10730.701       95.883627       24.635671       1
       10742.908       95.340633       19.815650       1
       10755.115       74.497226       24.296137       1
       10767.321       101.56835       19.831359       1
       10779.528       86.506119       24.582426       1
       10791.735       96.126148       27.633903       1
       10803.942       120.35050       24.671885       1
       10816.149       81.476579       19.415097       1
       10828.356       98.184638       24.234179       1
       10840.563       93.443933       19.459123       1
       10852.769       81.970222       23.855102       1
       10864.976       92.261115       19.293597       1
       10877.183       70.237060       23.385469       1
       10889.390       98.480671       19.381357       1
       10901.597       109.03865       24.232288       1
       10913.804       93.919169       19.303283       1
       10926.011       91.168213       23.968953       1
       10938.217       93.603200       19.252201       1
       10950.424       69.878544       23.540866       1
       10962.631       98.333310       19.367878       1
       10974.838       103.99166       23.877553       1
       10987.045       99.920319       19.437094       1
       10999.252       112.36820       24.003835       1
       11011.459       86.926581       19.177298       1
       11023.665       125.42472       24.198162       1
       11035.872       109.71332       19.422734       1
       11048.079       131.82734       24.163050       1
       11060.286       95.826916       19.240507       1
       11072.493       107.11435       23.858051       1
       11084.700       101.68869       19.933595       1
       11096.907       95.659272       23.983856       1
       11109.113       97.313179       19.284855       1
       11121.320       96.054075       23.986265       1
       11133.527       120.57177       19.482418       1
       11145.734       106.75537       24.069066       1
       11157.941       111.74310       19.191962       1
       11170.148       114.73031       24.080886       1
       11182.355       109.51665       19.302983       1
       11194.561       96.637984       23.816585       1
       11206.768       93.981480       19.207329       0
       11218.975       108.88172       24.114796       0
       11231.182       107.96045       19.327588       0
       11243.389       110.69966       24.044873       0
       11255.596       103.98754       19.246424       0
       11267.803       100.55728       23.832421       0
       11280.009       83.690259       19.414626       0
       11292.216       113.24965       24.794335       0
       11304.423       83.459753       20.416665       0
       11316.630       105.99048       26.784922       0
       11328.837       126.72376       26.260361       0
       11341.044       125.47425       30.923014       0
       11353.251       99.012098       27.076320       0
       11365.457       100.91654       37.062373       0
       11377.664       96.540616       46.062862       0
       11389.871       129.49356       47.397434       0
       11402.078       163.57935       44.301966       0
       11414.285       175.93899       62.600436       0
       11426.492       174.50397       56.883002       0
       11438.699       152.69958       78.287322       0
       11450.905       145.64424       69.829577       0
       11463.112       190.50522       96.324633       0
       11475.319       156.09299       87.274976       0
       11487.526       267.33883       124.56586       0
       11499.733       229.68503       116.68176       0
       11511.940       175.67173       173.57927       0
       11524.147       306.46668       171.37582       0
       11536.353       206.90572       264.03777       0
       11548.560       304.80658       265.86504       0
       11560.767      -56.269273       410.16086       0
       11572.974       780.06988       411.68331       0
       11585.181       267.50636       619.19614       0
       11597.388      -19.763321       601.45680       0
       11609.595       163.21294       920.52625       0
       11621.801      -899.85838       957.86943       0
       11634.008       1539.5051       1591.0887       0
       11646.215      -280.93110       1651.6969       0
       11658.422       1446.3960       2734.2201       0
       11670.629       2649.5901       2902.0823       0
       11682.836      -4035.7853       4272.4992       0
       11695.043       3776.1099       3741.7688       0
       11707.249      -1939.5718       4725.2110       0
       11719.456      -3194.2012       3829.2551       0
       11731.663       36.036292       4479.1312       0
       11743.870      -3912.8342       3686.3961       0
       11756.077       155.40495       4630.6137       0
       11768.284       2869.0796       4086.9822       0
       11780.491      -4187.9913       5738.3007       0
       11792.697       2537.7531       5539.8434       0
       11804.904       2125.1651       8231.4911       0
       11817.111       2664.6011       7873.3498       0
       11829.318       2445.1608       11312.028       0
       11841.525       2546.7548       10455.646       0
       11853.732       675.37581       14738.905       0
       11865.939      -2397.2654       14211.701       0
       11878.145       27095.907       22414.895       0
       11890.352       39357.933       22000.677       0
       11902.559       7146.9735       31596.866       0
       11914.766       2777.1520       29641.466       0
