#WAVELENGTH FLUX ERROR MASK
       10202.505       239.08814       162.64836       0
       10225.547       2967.2183       168.02679       0
       10248.590       894.54125       155.10035       0
       10271.632       27.748675       140.96008       0
       10294.675      -879.74346       120.80981       0
       10317.717       1559.0655       123.59806       0
       10340.760       557.59006       119.08895       0
       10363.803       1076.9783       111.80275       0
       10386.845       380.63649       30945550.       0
       10409.888       480.51495       101.33954       0
       10432.930       534.42115       98.782923       0
       10455.973       43.559591       81.024250       0
       10479.015       153.49316       83.955263       0
       10502.058       697.66242       76.550171       0
       10525.101       604.88872       71.642622       0
       10548.143       491.14284       65.262108       0
       10571.186       409.31681       62.267431       0
       10594.228       328.43043       57.626404       0
       10617.271       338.98971       55.514027       0
       10640.313       357.62829       51.752156       0
       10663.356       327.84531       49.996970       0
       10686.399       141.39352       45.416390       0
       10709.441       247.11554       43.220799       0
       10732.484       197.93395       38.713109       0
       10755.526       186.81090       36.134662       0
       10778.569       208.71391       32.657831       0
       10801.611       176.21877       30.538716       0
       10824.654       166.36595       27.831597       0
       10847.696       130.82408       26.602696       0
       10870.739       151.07173       24.919164       0
       10893.782       135.74499       24.157057       0
       10916.824       165.84434       23.057946       0
       10939.867       150.60371       22.687172       0
       10962.909       158.32610       21.719353       0
       10985.952       128.87427       21.128338       0
       11008.994       137.56959       20.250148       1
       11032.037       78.796477       18.250264       1
       11055.080       142.52171       19.074912       1
       11078.122       122.46569       18.725436       1
       11101.165       120.31472       18.087624       1
       11124.207       121.84917       18.058217       1
       11147.250       116.56256       17.545946       1
       11170.292       115.50097       17.690765       1
       11193.335       108.24949       17.227424       1
       11216.378       118.54888       17.453992       1
       11239.420       110.04909       17.049060       1
       11262.463       127.78232       18.104461       1
       11285.505       115.12117       16.994826       1
       11308.548       124.64410       17.239838       1
       11331.590       113.71869       16.909000       1
       11354.633       115.84865       17.095667       1
       11377.676       119.41461       16.822462       1
       11400.718       111.20188       17.004460       1
       11423.761       99.008594       16.522133       1
       11446.803       133.04639       17.025146       1
       11469.846       63.595907       15.037126       1
       11492.888       113.62809       4428977.7       1
       11515.931       99.691723       16.510037       1
       11538.973       123.91282       16.970616       1
       11562.016       113.63291       16.634424       1
       11585.059       109.53126       16.900192       1
       11608.101       106.94528       16.442353       1
       11631.144       97.101262       16.668674       1
       11654.186       60.901843       15.223242       1
       11677.229       120.03046       16.765309       1
       11700.271       114.70793       16.304704       1
       11723.314       114.53753       16.562789       1
       11746.357       103.53525       16.060816       1
       11769.399       110.57631       16.342540       1
       11792.442       103.06858       15.996432       1
       11815.484       104.89363       16.177529       1
       11838.527       92.945055       15.753530       1
       11861.569       121.39352       16.273575       1
       11884.612       94.811632       15.748813       1
       11907.655       113.49572       16.072538       1
       11930.697       105.25106       15.774513       1
       11953.740       101.05043       15.969698       1
       11976.782       105.90105       15.606513       1
       11999.825       114.28086       15.947875       1
       12022.867       95.240367       15.476703       1
       12045.910       108.41763       15.842314       1
       12068.952       112.06334       15.509580       1
       12091.995       99.704163       15.706057       1
       12115.038       101.65778       15.478542       1
       12138.080       110.00443       15.735146       1
       12161.123       90.055514       15.251630       1
       12184.165       86.088106       15.453451       1
       12207.208       91.125988       15.142181       1
       12230.250       94.917284       15.430794       1
       12253.293       106.57528       15.278913       1
       12276.336       98.144413       15.333931       1
       12299.378       98.582744       15.159639       1
       12322.421       94.397257       15.317139       1
       12345.463       90.211069       15.113166       1
       12368.506       101.37916       15.268607       1
       12391.548       99.028602       15.031588       1
       12414.591       99.174891       15.272162       1
       12437.634       117.78379       15.175261       1
       12460.676       101.24490       15.238646       1
       12483.719       108.44446       14.991331       1
       12506.761       107.80520       15.247547       1
       12529.804       50.350246       12.767020       1
       12552.846       96.893269       14.885312       1
       12575.889       101.67526       14.249114       1
       12598.932       89.923960       14.762434       1
       12621.974       106.19537       14.253784       1
       12645.017       110.68605       14.859198       1
       12668.059       103.02200       14.234213       1
       12691.102       54.935926       13.540123       1
       12714.144       104.21511       14.227446       1
       12737.187       108.83434       14.743132       1
       12760.229       114.03636       14.205420       1
       12783.272       99.039999       14.533956       1
       12806.315       101.61982       14.045558       1
       12829.357       108.69959       14.605678       1
       12852.400       99.616139       13.930078       1
       12875.442       96.222329       14.479199       1
       12898.485       100.91212       13.906042       1
       12921.527       103.30256       14.622939       1
       12944.570       109.33226       13.988617       1
       12967.613       103.64821       14.634483       1
       12990.655       64.304775       12.819327       1
       13013.698       101.63934       14.354195       1
       13036.740       108.90714       13.870661       1
       13059.783       108.46347       14.347892       1
       13082.825       106.91811       13.776360       1
       13105.868       110.21602       14.300984       1
       13128.911       92.387786       13.658098       1
       13151.953       111.53584       14.310535       1
       13174.996       103.88503       13.778812       1
       13198.038       89.691113       14.051041       1
       13221.081       102.64973       13.608457       1
       13244.123       93.309265       13.720847       1
       13267.166       102.70689       13.561697       1
       13290.208       95.742041       13.917072       1
       13313.251       65.310593       12.616485       1
       13336.294       104.53782       14.067464       1
       13359.336       110.38979       13.716573       1
       13382.379       110.15185       14.039778       1
       13405.421       113.59866       13.615353       1
       13428.464       106.55038       13.965834       1
       13451.506       114.12585       13.603777       1
       13474.549       114.01234       14.042940       1
       13497.592       117.65629       13.572491       1
       13520.634       104.13616       13.880414       1
       13543.677       107.74691       13.719928       1
       13566.719       102.06411       13.859451       1
       13589.762       106.72146       13.510797       1
       13612.804       103.98433       13.861772       1
       13635.847       104.78287       13.468879       1
       13658.890       100.59419       13.824652       1
       13681.932       113.71075       13.580798       1
       13704.975       98.529169       13.713317       1
       13728.017       102.94785       13.471186       1
       13751.060       100.53018       13.820531       1
       13774.102       101.92577       13.439552       1
       13797.145       99.534267       13.880636       1
       13820.188       91.534646       13.381284       1
       13843.230       106.02163       13.979352       1
       13866.273       96.987271       13.166309       1
       13889.315       53.549446       12.569130       1
       13912.358       106.27378       13.470700       1
       13935.400       104.64448       13.893641       1
       13958.443       82.531816       13.238134       1
       13981.485       111.88988       13.960031       1
       14004.528       107.22453       13.477006       1
       14027.571       114.97938       13.928839       1
       14050.613       100.79747       13.408402       1
       14073.656       106.20020       13.791096       1
       14096.698       97.232517       13.294892       1
       14119.741       108.10724       13.765144       1
       14142.783       102.82156       13.251496       1
       14165.826       102.24619       13.696535       1
       14188.869       97.776470       13.179638       1
       14211.911       101.94922       13.634448       1
       14234.954       95.470288       13.125040       1
       14257.996       100.95616       13.659839       1
       14281.039       99.171995       13.142108       1
       14304.081       105.63657       13.631991       1
       14327.124       105.41159       13.141138       1
       14350.167       110.91953       13.651462       1
       14373.209       103.89849       13.114721       1
       14396.252       99.091869       13.579023       1
       14419.294       95.031132       13.127009       1
       14442.337       107.25197       13.700845       1
       14465.379       102.94601       13.269938       1
       14488.422       90.777825       13.509814       1
       14511.464       106.44206       13.266504       1
       14534.507       87.348612       13.477588       1
       14557.550       92.725023       13.172822       1
       14580.592       92.215512       13.515697       1
       14603.635       101.88484       13.248893       1
       14626.677       100.32418       13.616660       1
       14649.720       88.534276       13.142957       1
       14672.762       90.443265       13.466335       1
       14695.805       89.511255       13.172764       1
       14718.848       90.288027       13.563736       1
       14741.890       92.212104       13.227782       1
       14764.933       90.607024       13.513530       1
       14787.975       95.032067       13.189899       1
       14811.018       95.005481       13.581711       1
       14834.060       87.344238       13.019671       1
       14857.103       91.759858       13.538113       1
       14880.146       96.112693       13.143724       1
       14903.188       99.180584       13.573196       1
       14926.231       58.120454       11.828014       1
       14949.273       92.150510       13.406691       1
       14972.316       94.566499       13.077304       1
       14995.358       97.470713       13.527675       1
       15018.401       89.296913       13.063012       1
       15041.443       99.665257       13.451419       1
       15064.486       86.179019       13.409087       1
       15087.529       95.765527       13.616004       1
       15110.571       93.020194       13.552534       1
       15133.614       87.363404       13.529291       1
       15156.656       81.342814       13.309655       1
       15179.699       95.966141       14.215760       1
       15202.741       87.971444       13.415091       1
       15225.784       43.338438       12.280062       1
       15248.827       78.349484       13.500626       1
       15271.869       92.300248       13.521943       1
       15294.912       79.440132       13.256957       1
       15317.954       88.550356       13.548215       1
       15340.997       83.723319       13.379844       1
       15364.039       91.516693       13.551204       1
       15387.082       44.339749       12.391473       1
       15410.125       89.531004       13.475563       1
       15433.167       86.060941       13.333939       1
       15456.210       92.790838       13.548023       1
       15479.252       84.792481       13.416993       1
       15502.295       92.339468       14.104183       1
       15525.337       87.501333       13.442134       1
       15548.380       103.26988       14.192541       1
       15571.423       97.500841       13.512688       1
       15594.465       102.30546       13.721336       1
       15617.508       96.638453       13.461178       1
       15640.550       99.478437       13.634438       1
       15663.593       88.610586       13.362435       1
       15686.635       85.862878       13.510122       1
       15709.678       88.954715       13.330138       1
       15732.720       89.709281       13.451795       1
       15755.763       85.774360       13.335409       1
       15778.806       77.037960       13.286133       1
       15801.848       93.501199       13.332685       1
       15824.891       93.640370       13.504322       1
       15847.933       83.677284       13.245218       1
       15870.976       85.495780       13.440795       1
       15894.018       84.114457       13.193351       1
       15917.061       88.019481       13.396944       1
       15940.104       80.481997       13.238249       1
       15963.146       88.591654       13.486605       1
       15986.189       88.386991       13.302257       1
       16009.231       95.717331       13.549816       1
       16032.274       92.681104       13.327822       1
       16055.316       84.631970       13.471943       1
       16078.359       92.310496       13.208177       1
       16101.402       91.952522       13.497356       1
       16124.444       84.723933       13.233750       1
       16147.487       94.300925       13.486264       1
       16170.529       83.138303       13.337058       1
       16193.572       86.950064       13.550822       1
       16216.614       88.097535       13.382216       1
       16239.657       88.376353       13.569279       1
       16262.699       91.434709       13.384581       1
       16285.742       92.728949       13.623992       1
       16308.785       86.873084       13.372181       1
       16331.827       83.652105       13.568607       1
       16354.870       74.838722       13.311220       1
       16377.912       91.890363       13.647317       1
       16400.955       90.350993       13.429662       1
       16423.997       79.014571       13.521824       1
       16447.040       87.719717       13.465093       1
       16470.083       78.702960       13.671330       1
       16493.125       70.019087       13.449281       1
       16516.168       77.768491       13.840593       1
       16539.210       84.469719       13.913104       1
       16562.253       74.327479       14.217652       1
       16585.295       71.797059       14.356199       1
       16608.338       68.750091       14.944795       1
       16631.381       81.292164       15.382225       1
       16654.423       81.716173       16.259720       1
       16677.466       53.975183       16.480515       1
       16700.508       78.284528       17.781248       1
       16723.551       68.180782       18.520803       1
       16746.593       89.008569       20.039028       1
       16769.636       102.01789       20.987766       0
       16792.679       72.625598       22.618061       0
       16815.721       83.865215       23.906202       0
       16838.764       99.939572       25.905672       0
       16861.806       70.704245       27.993772       0
       16884.849       40.238217       28.384023       0
       16907.891       148.99482       29.934336       0
       16930.934       65.017881       31.807912       0
       16953.976       135.19891       33.094342       0
       16977.019       112.24577       35.569414       0
       17000.062       103.86248       36.839853       0
       17023.104       76.813428       39.434485       0
       17046.147       4.7633155       41.467885       0
       17069.189       205.78046       43.606314       0
       17092.232       77.224178       45.059851       0
       17115.274      -88.376007       48.086705       0
       17138.317       41.914960       50.969823       0
       17161.360       167.68432       55.614534       0
       17184.402       92.661344       58.748206       0
       17207.445       269.44296       63.764650       0
       17230.487       162.94382       66.146486       0
       17253.530       269.61253       71.102318       0
       17276.572      -27.582371       73.369316       0
       17299.615       164.50270       78.458256       0
       17322.658      -274.25154       80.277731       0
       17345.700       41.504888       86.286851       0
       17368.743      -69.293934       89.494191       0
