#WAVELENGTH FLUX ERROR MASK
       10204.552       6444.5713       196.97877       0
       10227.575       3665.7057       176.42564       0
       10250.598       2677.5651       167.96900       0
       10273.621       2473.4997       151.83735       0
       10296.644       1719.3277       145.10312       0
       10319.668       2800.7206       133.77961       0
       10342.691       1763.6920       129.99321       0
       10365.714       1298.5508       119.88076       0
       10388.737       2439.1845       118.63063       0
       10411.760       1494.8343       108.82085       0
       10434.783       1794.4789       105.62746       0
       10457.806       1432.7934       96.281691       0
       10480.829       729.29080       89.681850       0
       10503.852       622.70653       80.159350       0
       10526.875       745.44554       75.062370       0
       10549.899       1031.4392       69.055565       0
       10572.922       469.82567       64.852677       0
       10595.945       350.04442       57.745945       0
       10618.968       322.03920       56.989567       0
       10641.991       376.57819       52.647187       0
       10665.014       16.522620       50.987299       0
       10688.037       513.62722       46.723322       0
       10711.060       265.36845       44.697406       0
       10734.083       269.83901       39.564767       0
       10757.107       370.94872       37.558519       0
       10780.130       264.28041       33.004501       0
       10803.153       155.84291       31.155906       0
       10826.176       167.72277       28.016213       0
       10849.199       207.06299       27.591974       0
       10872.222       145.23836       25.090079       0
       10895.245       183.40651       24.974468       0
       10918.268       202.13509       23.468299       0
       10941.291       179.03608       23.521124       0
       10964.314       182.93232       21.979930       0
       10987.338       11.541825       18.091329       0
       11010.361       187.11617       20.579994       1
       11033.384       196.75255       20.789212       1
       11056.407       176.28072       19.294969       1
       11079.430       156.56459       19.486925       1
       11102.453       195.77738       18.562137       1
       11125.476       179.04241       18.873784       1
       11148.499       163.22696       17.892010       1
       11171.522       166.78278       18.390606       1
       11194.546       162.25018       17.577691       1
       11217.569       164.00147       18.174309       1
       11240.592       179.57076       17.458521       1
       11263.615       178.40858       18.087570       1
       11286.638       170.82083       17.398300       1
       11309.661       162.44911       17.990270       1
       11332.684       140.70983       17.085434       1
       11355.707       143.58529       17.648414       1
       11378.730       160.19781       17.032630       1
       11401.753       150.07819       17.716013       1
       11424.777       142.46541       16.910322       1
       11447.800       175.19320       17.731301       1
       11470.823       162.70978       17.101345       1
       11493.846       156.34145       17.497664       1
       11516.869       176.74279       17.051742       1
       11539.892       148.78122       17.597432       1
       11562.915       129.53195       16.526298       1
       11585.938       148.06262       17.508251       1
       11608.961       160.58581       16.956755       1
       11631.984       149.14380       17.472345       1
       11655.008       164.14537       16.921987       1
       11678.031       140.36402       17.263200       1
       11701.054       168.81521       16.960711       1
       11724.077       168.27536       17.289534       1
       11747.100       161.22232       16.737045       1
       11770.123       174.41310       17.134536       1
       11793.146       187.42026       16.732204       1
       11816.169       170.95398       16.951442       1
       11839.192       179.91988       16.696055       1
       11862.216       169.83466       16.767083       1
       11885.239       179.49705       16.489108       1
       11908.262       156.40856       16.827487       1
       11931.285       140.47616       16.022963       1
       11954.308       166.62027       16.784473       1
       11977.331       158.00250       16.438242       1
       12000.354       168.88081       16.734151       1
       12023.377       156.97044       16.009382       1
       12046.400       163.82543       16.568309       1
       12069.423       155.22821       16.106572       1
       12092.447      -24.021407       12.086378       1
       12115.470       152.64101       16.052594       1
       12138.493       178.51558       16.443221       1
       12161.516       136.47474       15.814798       1
       12184.539       151.01633       16.335540       1
       12207.562       151.13487       16.021805       1
       12230.585       152.36319       16.251996       1
       12253.608       151.34396       15.877235       1
       12276.631       157.29257       16.099587       1
       12299.655       142.42638       15.780447       1
       12322.678       165.63967       16.128397       1
       12345.701       135.25962       15.773605       1
       12368.724       165.96077       16.076586       1
       12391.747       146.90783       15.725044       1
       12414.770       138.93944       15.959646       1
       12437.793       141.04643       15.665548       1
       12460.816       142.95956       15.956496       1
       12483.839       145.17595       15.391857       1
       12506.862       152.46629       16.017032       1
       12529.886       160.44490       15.409653       1
       12552.909       149.42448       15.925631       1
       12575.932       164.39982       15.710194       1
       12598.955       148.50668       15.928041       1
       12621.978       148.38224       15.681879       1
       12645.001       157.98648       15.911421       1
       12668.024       159.22709       15.578338       1
       12691.047       143.84140       15.825340       1
       12714.070       134.57378       15.319288       1
       12737.094       152.75882       15.742437       1
       12760.117       150.87201       15.396576       1
       12783.140       140.24895       15.538646       1
       12806.163       153.77074       15.144062       1
       12829.186       168.35459       15.705636       1
       12852.209       160.97536       15.415249       1
       12875.232       146.05995       15.496557       1
       12898.255       155.69209       15.316216       1
       12921.278       157.54535       15.728731       1
       12944.301       146.58280       15.214881       1
       12967.325       162.22560       15.490463       1
       12990.348       165.09271       15.246459       1
       13013.371       166.82405       15.643961       1
       13036.394       151.34610       15.168484       1
       13059.417       131.70419       15.267631       1
       13082.440       169.69421       15.200663       1
       13105.463       150.21167       15.249063       1
       13128.486       166.15631       15.073151       1
       13151.509       164.84687       15.555738       1
       13174.532       145.79755       15.089843       1
       13197.556       144.98479       15.136412       1
       13220.579       143.05602       14.925492       1
       13243.602       144.42569       15.197135       1
       13266.625       150.48965       14.900153       1
       13289.648       144.28466       15.124768       1
       13312.671       148.87021       14.878133       1
       13335.694       146.08834       15.136965       1
       13358.717       156.51053       14.965562       1
       13381.740       150.57997       15.043438       1
       13404.764       38.322501       12.647129       1
       13427.787       155.65898       15.071311       1
       13450.810       172.05200       15.080790       1
       13473.833       148.85716       15.017733       1
       13496.856       153.39552       14.763924       1
       13519.879       156.60741       15.032614       1
       13542.902       160.92993       14.831750       1
       13565.925       133.25636       14.813779       1
       13588.948       131.01194       14.535617       1
       13611.971       158.10138       15.020165       1
       13634.995       157.98779       14.689082       1
       13658.018       139.91487       14.930673       1
       13681.041       146.70191       14.591889       1
       13704.064       156.86598       15.065935       1
       13727.087       149.74610       14.482091       1
       13750.110       163.80289       15.117919       1
       13773.133       150.55794       14.664985       1
       13796.156       151.40618       14.989381       1
       13819.179       143.09943       14.669479       1
       13842.203       152.17762       15.094727       1
       13865.226       131.75352       14.586057       1
       13888.249       148.99166       14.962333       1
       13911.272       151.67263       14.769073       1
       13934.295       142.49750       14.828663       1
       13957.318       136.74905       14.548589       1
       13980.341       142.11130       14.835480       1
       14003.364       151.77693       14.646678       1
       14026.387       149.64975       14.839688       1
       14049.410       165.80256       14.637156       1
       14072.434       156.27746       14.820749       1
       14095.457       156.99959       14.410293       1
       14118.480       148.96786       14.851869       1
       14141.503       141.71223       14.341218       1
       14164.526       156.13599       14.778082       1
       14187.549       144.84362       14.388616       1
       14210.572       144.50495       14.617891       1
       14233.595       131.34533       14.216486       1
       14256.618       134.55516       14.547143       1
       14279.642       145.22126       14.326798       1
       14302.665       160.77292       14.670780       1
       14325.688       141.29647       14.250979       1
       14348.711       146.17959       14.528628       1
       14371.734       172.83373       14.875090       1
       14394.757       148.90507       14.482888       1
       14417.780       145.03836       14.216603       1
       14440.803       150.42734       14.135947       1
       14463.826       136.91178       13.785257       1
       14486.849       154.60615       14.281834       1
       14509.873       154.87299       13.928734       1
       14532.896       171.74396       14.333175       1
       14555.919       155.10643       13.845914       1
       14578.942       155.39009       14.119212       1
       14601.965       165.27109       13.989240       1
       14624.988       170.95938       14.186004       1
       14648.011       162.75914       13.968675       1
       14671.034       173.37114       14.251966       1
       14694.057       163.52765       13.909870       1
       14717.080       161.36510       14.249046       1
       14740.104       177.82971       14.033007       1
       14763.127       151.46130       14.225382       1
       14786.150       172.76624       14.017143       1
       14809.173       163.64119       14.291654       1
       14832.196       168.29699       13.959622       1
       14855.219       168.78198       14.285406       1
       14878.242       158.65786       13.680620       1
       14901.265       164.64967       14.207838       1
       14924.288       141.40599       13.609588       1
       14947.312       169.23817       14.097927       1
       14970.335       160.58514       13.516829       1
       14993.358       154.95693       14.066432       1
       15016.381       161.98986       13.547871       1
       15039.404      -8.9030772       9.9871434       1
       15062.427       171.74470       13.688500       1
       15085.450       164.82904       14.086801       1
       15108.473       158.68136       13.651907       1
       15131.496       157.03019       13.985654       1
       15154.519       166.15277       13.706600       1
       15177.543       166.65539       14.089231       1
       15200.566       161.98239       13.594380       1
       15223.589       152.78827       13.868319       1
       15246.612       158.75151       13.566142       1
       15269.635       159.43832       13.937458       1
       15292.658       160.40790       13.552118       1
       15315.681       149.55750       13.722419       1
       15338.704       178.13518       14.155309       1
       15361.727       145.60779       13.709494       1
       15384.751       158.03238       13.437345       1
       15407.774       146.83801       13.709090       1
       15430.797       169.48843       13.650897       1
       15453.820       170.71899       14.034930       1
       15476.843       168.51548       13.535845       1
       15499.866       175.50648       14.048937       1
       15522.889       188.56023       13.773369       1
       15545.912       184.23110       14.107168       1
       15568.935       177.98152       13.666748       1
       15591.958       163.86204       13.936999       1
       15614.982       149.35832       13.416450       1
       15638.005       158.29959       13.728512       1
       15661.028       159.00026       13.554166       1
       15684.051       145.61937       13.280015       1
       15707.074       148.57281       12.987928       1
       15730.097       60.139674       10.675794       1
       15753.120       163.09677       13.058692       1
       15776.143       148.34854       13.234381       1
       15799.166       156.89063       13.045016       1
       15822.190       152.31861       13.326864       1
       15845.213       167.22544       13.131174       1
       15868.236       137.25066       13.185093       1
       15891.259       154.03026       12.918375       1
       15914.282       152.17408       13.265307       1
       15937.305       146.86174       12.884489       1
       15960.328       155.70068       13.005890       1
       15983.351       157.30852       13.019243       1
       16006.374       171.16130       13.360186       1
       16029.397       145.86569       12.830523       1
       16052.421       148.83373       13.110415       1
       16075.444       158.87050       12.966129       1
       16098.467       155.46367       13.369479       1
       16121.490       150.83591       12.927234       1
       16144.513       163.18775       13.446258       1
       16167.536       155.92667       12.996755       1
       16190.559       147.44286       13.309010       1
       16213.582       151.85107       13.029195       1
       16236.605       138.71392       13.299463       1
       16259.628       146.30918       12.942871       1
       16282.652       172.34171       13.570028       1
       16305.675       70.092074       10.323238       1
       16328.698       151.85669       13.389840       1
       16351.721       156.50094       13.117021       1
       16374.744       147.79092       13.403122       1
       16397.767       145.93302       13.014647       1
       16420.790       151.94817       13.300859       1
       16443.813       142.20275       13.067345       1
       16466.836       139.04866       13.330465       1
       16489.860       148.96796       13.144626       1
       16512.883       151.92387       13.673028       1
       16535.906       145.44194       13.439969       1
       16558.929       153.42862       14.702583       1
       16581.952       162.47334       14.068580       1
       16604.975       144.59241       15.327064       1
       16627.998       137.42714       14.635032       1
       16651.021       156.25404       15.563932       1
       16674.044       171.96039       16.000359       1
       16697.067       137.88259       16.844081       1
       16720.091       149.92630       17.385329       1
       16743.114       126.20520       18.323157       1
       16766.137       145.73328       19.607449       0
       16789.160       171.64652       20.888696       0
       16812.183       189.97347       24.006695       0
       16835.206       186.40337       24.110840       0
       16858.229       195.83390       25.118047       0
       16881.252       158.47302       27.003073       0
       16904.275       214.40783       27.862262       0
       16927.299       173.78318       29.708775       0
       16950.322       262.39134       30.862186       0
       16973.345       218.51511       33.428683       0
       16996.368       199.67729       34.336037       0
       17019.391       219.58907       36.945928       0
       17042.414       418.90277       38.456728       0
       17065.437       207.44051       40.701776       0
       17088.460       586.68247       42.996846       0
       17111.483       592.81370       46.791529       0
       17134.506       387.69768       47.728510       0
       17157.530       710.60799       53.462423       0
       17180.553       718.39302       55.601347       0
       17203.576       898.58178       62.419038       0
       17226.599       605.35315       62.092056       0
       17249.622       1285.0450       68.155364       0
       17272.645       1107.1146       69.893434       0
       17295.668       580.94800       74.049487       0
       17318.691       909.09974       76.208770       0
       17341.714       784.87181       81.254210       0
       17364.738       717.72895       83.869529       0
