#WAVELENGTH FLUX ERROR MASK
       10200.545       1308.8815       186.73705       0
       10223.497       759.98112       180.43917       0
       10246.449       2689.5996       163.72685       0
       10269.401       954.71870       156.42916       0
       10292.353       665.75358       140.55996       0
       10315.305       1546.0766       136.92412       0
       10338.257       660.55209       125.35226       0
       10361.209       867.78241       122.55392       0
       10384.161       524.47250       121.65226       0
       10407.113      -760.67371       96.080728       0
       10430.065       1452.4756       104.66443       0
       10453.017       476.08193       99.258694       0
       10475.969       554.89784       89.105540       0
       10498.921       509.67913       84.755277       0
       10521.873       36.274541       75.022279       0
       10544.825       442.68641       72.240253       0
       10567.777       291.38663       65.249459       0
       10590.730      -7.4299218       63.248510       0
       10613.682       79.860929       58.519760       0
       10636.634      -65.237957       49.722543       0
       10659.586       248.66590       53.010313       0
       10682.538       218.54000       51.200731       0
       10705.490       321.50407       46.546052       0
       10728.442       251.55054       43.700239       0
       10751.394       221.69443       38.984498       0
       10774.346       26.808512       36.082219       0
       10797.298       108.57533       32.416652       0
       10820.250       121.93089       31.262129       0
       10843.202       113.02889       28.443768       0
       10866.154       99.578733       27.614540       0
       10889.106       108.78672       25.690560       0
       10912.058       163.79416       25.963707       0
       10935.010       121.59312       24.078375       0
       10957.962       164.55572       24.185340       0
       10980.915       136.86689       22.618697       0
       11003.867       95.136790       22.396190       1
       11026.819       135.82033       21.285077       1
       11049.771       110.55700       21.156406       1
       11072.723       161.60918       20.271109       1
       11095.675       155.37359       20.430452       1
       11118.627       118.54317       18.991898       1
       11141.579       122.15590       19.549099       1
       11164.531       140.05030       18.622043       1
       11187.483       106.37965       18.940783       1
       11210.435       150.65490       18.456986       1
       11233.387       113.53924       18.674562       1
       11256.339       133.19773       18.203614       1
       11279.291       143.04929       18.662088       1
       11302.243       118.29030       18.054403       1
       11325.195       128.34237       18.550588       1
       11348.147       108.52446       17.805070       1
       11371.100       121.73329       18.367492       1
       11394.052       113.74611       17.641870       1
       11417.004       118.12644       18.150096       1
       11439.956       118.62048       17.570480       1
       11462.908       98.363433       19.222368       1
       11485.860       137.37956       17.641125       1
       11508.812       128.29368       18.163345       1
       11531.764       128.41157       17.540030       1
       11554.716       117.06952       18.104811       1
       11577.668       114.77358       17.252195       1
       11600.620       120.65964       17.985270       1
       11623.572       108.42683       17.254099       1
       11646.524       127.26828       17.866968       1
       11669.476       141.23380       17.336946       1
       11692.428       126.45862       17.721833       1
       11715.380       75.433975       14.743812       1
       11738.332       148.57642       17.686380       1
       11761.284       130.14391       16.938525       1
       11784.237       124.12328       17.223910       1
       11807.189       71.043641       14.674619       1
       11830.141       128.61405       17.205106       1
       11853.093       141.15344       16.639813       1
       11876.045       142.57021       17.171709       1
       11898.997       144.65616       16.629796       1
       11921.949       143.26338       17.128094       1
       11944.901       118.21972       16.356101       1
       11967.853       104.97486       16.768170       1
       11990.805       143.00905       16.528634       1
       12013.757       120.84849       16.780927       1
       12036.709       133.13519       16.256891       1
       12059.661       143.60998       16.748863       1
       12082.613       131.94762       16.217792       1
       12105.565       127.66782       16.539835       1
       12128.517       125.26636       16.109009       1
       12151.469       116.17218       16.511608       1
       12174.422       118.44069       15.955541       1
       12197.374       130.32015       16.363452       1
       12220.326       117.40450       15.698925       1
       12243.278       112.49475       16.166243       1
       12266.230       145.84336       15.972532       1
       12289.182       108.87339       16.125890       1
       12312.134       116.78517       15.683180       1
       12335.086       118.06303       16.138960       1
       12358.038       109.45185       15.644185       1
       12380.990       119.34652       16.064222       1
       12403.942       121.74043       15.562427       1
       12426.894       134.00279       16.181086       1
       12449.846       131.97087       15.643220       1
       12472.798       119.76663       15.978898       1
       12495.750       124.23672       15.557857       1
       12518.702       114.69422       15.925021       1
       12541.654       121.61023       15.574463       1
       12564.607       143.44511       16.080554       1
       12587.559       117.91148       15.416191       1
       12610.511       146.95711       16.174542       1
       12633.463       142.28102       15.600403       1
       12656.415       120.28932       15.896435       1
       12679.367       105.34687       15.109551       1
       12702.319       134.84538       15.940761       1
       12725.271       123.12942       15.348318       1
       12748.223       102.22709       15.634926       1
       12771.175       125.79358       15.303754       1
       12794.127       126.84805       15.640705       1
       12817.079       120.28792       15.166633       1
       12840.031       136.07791       15.675113       1
       12862.983       123.93373       15.182556       1
       12885.935       114.80037       15.526217       1
       12908.887       129.40798       15.174580       1
       12931.839       150.50602       15.823509       1
       12954.792       138.00002       14.945631       1
       12977.744       117.59341       15.478148       1
       13000.696       121.73987       14.968223       1
       13023.648       116.94077       15.332483       1
       13046.600       120.90817       14.881636       1
       13069.552       134.90727       15.386836       1
       13092.504       138.52579       14.939187       1
       13115.456       128.35854       15.337890       1
       13138.408       137.49950       14.815889       1
       13161.360       121.30562       15.170939       1
       13184.312       124.35202       14.689004       1
       13207.264       109.80095       15.000337       1
       13230.216       120.62639       14.607499       1
       13253.168       130.14454       15.108565       1
       13276.120       128.65880       14.561824       1
       13299.072       122.72834       14.995275       1
       13322.024       115.15318       14.428274       1
       13344.977       120.97618       15.018451       1
       13367.929       123.48618       14.489292       1
       13390.881       66.134667       12.991423       1
       13413.833       124.60647       14.428182       1
       13436.785       127.77064       14.933522       1
       13459.737       125.83083       14.416980       1
       13482.689       122.65028       14.847845       1
       13505.641       112.67832       14.194215       1
       13528.593       124.63813       14.845763       1
       13551.545       120.67056       14.302309       1
       13574.497       115.92232       14.723114       1
       13597.449       152.53352       14.635147       1
       13620.401       89.766656       13.012356       1
       13643.353       120.28777       14.393124       1
       13666.305       135.91908       14.963066       1
       13689.257       125.17323       14.444944       1
       13712.209       135.72523       14.877480       1
       13735.161       129.40472       14.349097       1
       13758.114       120.64216       14.734610       1
       13781.066       112.99486       14.222256       1
       13804.018       115.45237       14.674263       1
       13826.970       134.63830       14.362862       1
       13849.922       127.81153       14.741493       1
       13872.874       122.14606       14.233160       1
       13895.826       122.72318       14.685468       1
       13918.778       119.90404       14.196960       1
       13941.730       106.67969       14.459042       1
       13964.682       123.30950       14.224157       1
       13987.634       119.22490       14.612434       1
       14010.586       136.02757       14.259181       1
       14033.538       126.80551       14.537320       1
       14056.490       142.24263       14.287130       1
       14079.442       128.44808       14.551830       1
       14102.394       113.68477       13.973158       1
       14125.346       111.86500       14.375431       1
       14148.299       136.27378       14.106192       1
       14171.251       76.482829       12.591258       1
       14194.203       133.45967       14.104570       1
       14217.155       126.38513       14.472200       1
       14240.107       123.39647       13.974387       1
       14263.059       97.010966       14.146013       1
       14286.011       89.570587       12.158605       1
       14308.963       128.50262       14.394975       1
       14331.915       137.66586       14.006938       1
       14354.867       122.40031       14.291740       1
       14377.819       120.55391       13.788040       1
       14400.771       127.35174       14.302152       1
       14423.723       118.34066       13.804946       1
       14446.675       122.23254       14.212889       1
       14469.627       110.40724       13.707908       1
       14492.579       125.28407       4213950.4       1
       14515.531       124.00606       13.848335       1
       14538.484       129.36347       14.329279       1
       14561.436       121.12146       13.838095       1
       14584.388       114.89486       14.192208       1
       14607.340       102.95607       12.242334       1
       14630.292       55.722889       12.121517       1
       14653.244       58.262842       11.968376       1
       14676.196       104.61651       14.119619       1
       14699.148       113.24638       13.769698       1
       14722.100       103.83703       14.059814       1
       14745.052       111.01314       13.784599       1
       14768.004       114.37292       14.098736       1
       14790.956       127.06320       13.916219       1
       14813.908       106.73906       14.136992       1
       14836.860       117.66868       13.805074       1
       14859.812       114.90519       14.206926       1
       14882.764       131.48671       4191770.7       1
       14905.716       124.08762       14.212072       1
       14928.669       113.78860       13.671291       1
       14951.621       134.88819       14.224113       1
       14974.573       129.71534       13.820008       1
       14997.525       113.41933       14.043969       1
       15020.477       107.22897       13.601741       1
       15043.429       114.26895       13.979844       1
       15066.381       115.67118       13.619195       1
       15089.333       106.20049       13.901669       1
       15112.285       68.740473       11.942697       1
       15135.237       116.72799       14.061705       1
       15158.189       113.04275       13.646566       1
       15181.141       125.79225       14.080811       1
       15204.093       106.82927       13.505294       1
       15227.045       105.41509       13.902861       1
       15249.997       110.03661       4131526.7       1
       15272.949       110.50968       13.997414       1
       15295.901       120.33274       13.700662       1
       15318.853       112.64248       14.000203       1
       15341.806       130.47730       13.774311       1
       15364.758       108.65004       14.028738       1
       15387.710       132.50437       13.764595       1
       15410.662       136.27538       14.287953       1
       15433.614       130.38202       13.551700       1
       15456.566       128.62118       14.208075       1
       15479.518       124.93174       13.667650       1
       15502.470       135.12901       14.284441       1
       15525.422       135.13747       13.865567       1
       15548.374       125.92492       14.189509       1
       15571.326       117.37224       13.748279       1
       15594.278       124.34546       14.172860       1
       15617.230       113.63431       13.708627       1
       15640.182       107.51247       14.017821       1
       15663.134       116.52261       13.648975       1
       15686.086       98.125044       13.853450       1
       15709.038       117.18536       13.634166       1
       15731.991       101.89819       13.727490       1
       15754.943       115.74012       13.606718       1
       15777.895       107.87131       13.776355       1
       15800.847       108.70164       13.534592       1
       15823.799       116.57921       13.914243       1
       15846.751       113.29871       13.605275       1
       15869.703       103.57139       13.824628       1
       15892.655       121.26253       13.509303       1
       15915.607       115.67414       13.885554       1
       15938.559       110.75029       14.502329       1
       15961.511       111.52599       14.014188       1
       15984.463       112.93386       14.523435       1
       16007.415       100.04986       13.877982       1
       16030.367       118.48191       13.692545       1
       16053.319       102.76248       13.923389       1
       16076.271       116.00584       4136250.8       1
       16099.223       108.83095       13.997291       1
       16122.176       106.63226       13.559187       1
       16145.128       110.27004       14.002794       1
       16168.080       102.19990       13.552481       1
       16191.032       109.72694       14.071580       1
       16213.984       117.56417       13.762311       1
       16236.936       125.81294       14.181426       1
       16259.888       116.28339       13.732472       1
       16282.840       120.78614       14.155545       1
       16305.792       114.01613       13.703476       1
       16328.744       136.62758       14.266793       1
       16351.696       115.16860       13.653069       1
       16374.648       114.18270       14.028797       1
       16397.600       118.61126       13.592812       1
       16420.552       101.67726       13.834467       1
       16443.504       120.42582       13.643738       1
       16466.456       122.26140       14.091911       1
       16489.408       110.35645       13.542183       1
       16512.361       107.75203       13.877265       1
       16535.313       76.659288       12.123976       1
       16558.265       108.67770       14.379001       1
       16581.217       103.72399       14.278198       1
       16604.169       109.76713       15.164033       1
       16627.121       118.80429       15.230647       1
       16650.073       54.746700       13.778474       1
       16673.025       121.29365       16.385637       1
       16695.977       126.86276       17.734823       1
       16718.929       105.74709       18.042778       1
       16741.881       136.94827       19.920593       1
       16764.833       127.76981       20.362010       0
       16787.785       98.658930       22.068688       0
       16810.737       104.21680       22.969851       0
       16833.689       112.75713       25.093797       0
       16856.641       103.37986       25.677786       0
       16879.593       133.49181       28.175477       0
       16902.546       124.88348       9739128.2       0
       16925.498       110.89324       31.122646       0
       16948.450       143.46753       32.038758       0
       16971.402       149.47451       34.763906       0
       16994.354       124.03586       35.749487       0
       17017.306       138.85987       38.726249       0
       17040.258       154.64997       39.433196       0
       17063.210       186.84726       43.030694       0
       17086.162       200.18530       44.189371       0
       17109.114      -25.821716       47.568750       0
       17132.066       321.30825       50.382625       0
       17155.018       173.24108       55.162757       0
       17177.970       304.67584       57.668358       0
       17200.922       183.33421       63.260823       0
       17223.874       303.48728       65.637536       0
       17246.826       209.93873       70.520292       0
       17269.778       583.13807       73.751207       0
       17292.730       431.46654       79.877986       0
       17315.683       458.93622       80.796622       0
       17338.635       250.72433       86.448851       0
