#WAVELENGTH FLUX ERROR MASK
       10213.423      -995.84888       169.70666       0
       10236.393      -840.96231       179.46218       0
       10259.363       498.60480       160.80285       0
       10282.333       1028.5966       155.19972       0
       10305.302      -63.347204       138.18044       0
       10328.272       639.70056       135.05263       0
       10351.242      -200.88407       122.66888       0
       10374.212       261.95060       123.24569       0
       10397.181      -839.40991       111.06159       0
       10420.151       132.19070       111.24903       0
       10443.121       343.73202       100.52450       0
       10466.091       211.54640       96.535831       0
       10489.060       578.60737       85.553880       0
       10512.030       664.96751       81.810769       0
       10535.000       126.90215       71.916139       0
       10557.970       233.52748       69.869196       0
       10580.939       316.27979       62.964219       0
       10603.909       32.441529       61.601938       0
       10626.879       387.65990       56.773989       0
       10649.849       330.38068       55.790528       0
       10672.818       129.13018       46.109879       0
       10695.788       202.78229       48.942037       0
       10718.758       189.55101       42.991295       0
       10741.728       215.69296       41.287747       0
       10764.697       182.17861       35.970460       0
       10787.667       87.009691       31.281098       0
       10810.637       191.99211       30.687327       0
       10833.607       90.522259       29.483854       0
       10856.576       143.58306       26.774914       0
       10879.546       68.205387       26.005495       0
       10902.516       129.05828       24.506441       0
       10925.486       138.95956       24.706353       0
       10948.455       130.53331       22.740343       0
       10971.425       108.20538       22.991129       0
       10994.395       125.47602       21.467655       0
       11017.365       102.80052       21.476638       1
       11040.334       108.76646       19.927674       1
       11063.304       133.94175       20.330741       1
       11086.274       115.69368       18.958164       1
       11109.243       118.22262       19.210367       1
       11132.213       133.85312       18.408373       1
       11155.183       102.78200       18.728453       1
       11178.153       132.82834       17.973252       1
       11201.122       114.72224       18.355791       1
       11224.092       121.39396       17.648709       1
       11247.062       101.07922       18.115469       1
       11270.032       124.61189       17.507687       1
       11293.001       103.50456       17.999443       1
       11315.971       122.08946       17.578073       1
       11338.941       118.02766       17.874693       1
       11361.911       110.80759       17.066120       1
       11384.880       123.07021       17.786222       1
       11407.850       82.603268       15.436551       1
       11430.820       111.61452       17.430111       1
       11453.790       107.28227       16.839284       1
       11476.759       86.609859       17.337351       1
       11499.729       96.491721       16.411685       1
       11522.699       101.81802       17.381727       1
       11545.669       101.82956       16.580839       1
       11568.638       114.02248       17.310209       1
       11591.608       113.28233       16.612137       1
       11614.578       93.247339       17.157578       1
       11637.548       110.89227       16.463836       1
       11660.517       49.083512       11.978630       1
       11683.487       107.10422       16.246450       1
       11706.457       84.926613       13.879084       1
       11729.427       114.72463       16.048793       1
       11752.396       88.044357       15.147643       1
       11775.366       120.93011       16.051022       1
       11798.336       112.57211       16.552031       1
       11821.306       128.98393       15.892850       1
       11844.275       98.268893       16.228096       1
       11867.245       99.194981       15.574771       1
       11890.215       97.254752       16.137671       1
       11913.185       109.50318       15.560187       1
       11936.154       102.62672       16.114727       1
       11959.124       111.21666       15.434619       1
       11982.094       98.724859       15.917119       1
       12005.064       97.781414       15.205829       1
       12028.033       104.90408       15.833122       1
       12051.003       108.95153       15.196705       1
       12073.973       92.243157       15.744868       1
       12096.943       103.65038       15.177998       1
       12119.912       68.130850       14.216619       1
       12142.882       98.732954       14.983205       1
       12165.852       106.15835       15.690004       1
       12188.822       116.62757       14.995596       1
       12211.791       106.98576       15.545588       1
       12234.761       89.845918       14.825980       1
       12257.731       99.311322       15.419511       1
       12280.700       99.288620       14.831434       1
       12303.670       90.977894       15.271631       1
       12326.640       108.24678       14.774901       1
       12349.610       101.32489       15.269038       1
       12372.579       94.201780       14.568907       1
       12395.549       104.24339       15.251124       1
       12418.519       104.55276       14.609674       1
       12441.489       97.259933       15.105577       1
       12464.458       100.49410       14.734741       1
       12487.428       86.824940       14.915939       1
       12510.398       123.64148       14.947263       1
       12533.368       103.32942       14.990009       1
       12556.337       116.79946       14.867865       1
       12579.307       95.411530       14.921156       1
       12602.277       117.87033       14.783823       1
       12625.247       95.502377       14.853432       1
       12648.216       117.40126       14.664326       1
       12671.186       102.69598       14.855701       1
       12694.156       102.99931       14.567275       1
       12717.126       97.072811       14.744113       1
       12740.095       111.94089       14.565168       1
       12763.065       94.455488       14.616901       1
       12786.035       106.98202       14.395774       1
       12809.005       90.407153       14.506963       1
       12831.974       97.492749       14.300129       1
       12854.944       88.437259       14.459663       1
       12877.914       97.867939       14.219578       1
       12900.884       104.27065       14.525969       1
       12923.853       107.43185       14.270672       1
       12946.823       96.690383       14.350493       1
       12969.793       105.72829       14.156911       1
       12992.763       99.293524       14.318046       1
       13015.732       103.61838       15.289797       1
       13038.702       95.708196       14.229288       1
       13061.672       106.89016       14.585742       1
       13084.642       83.245942       14.038581       1
       13107.611       108.93513       14.025123       1
       13130.581       96.752698       14.167954       1
       13153.551       103.40180       13.744762       1
       13176.521       96.653964       14.050627       1
       13199.490       86.703608       13.495743       1
       13222.460       82.303881       13.684641       1
       13245.430       78.830471       12.432175       1
       13268.400       89.871715       13.871089       1
       13291.369       103.89735       13.775886       1
       13314.339       87.122048       13.798669       1
       13337.309       96.754668       13.581058       1
       13360.278       88.714261       13.834999       1
       13383.248       92.661613       3636404.9       1
       13406.218       100.54525       13.814963       1
       13429.188       102.72904       13.639632       1
       13452.157       83.699599       13.642367       1
       13475.127       98.539879       13.581362       1
       13498.097       96.008274       13.722297       1
       13521.067       89.342967       13.398915       1
       13544.036       94.379542       13.622616       1
       13567.006       101.81936       13.497342       1
       13589.976       86.624808       13.592728       1
       13612.946       88.573603       13.289161       1
       13635.915       72.608583       12.427747       1
       13658.885       97.967416       13.380859       1
       13681.855       99.509671       13.636062       1
       13704.825       93.004243       13.400260       1
       13727.794       90.080289       13.635941       1
       13750.764       85.857979       13.364438       1
       13773.734       81.329668       13.589715       1
       13796.704       93.123296       13.387533       1
       13819.673       88.665785       13.587991       1
       13842.643       80.523787       13.195279       1
       13865.613       78.309606       13.486357       1
       13888.583       84.501874       13.288852       1
       13911.552       89.937363       13.604121       1
       13934.522       91.305838       13.334977       1
       13957.492       86.513374       13.523744       1
       13980.462       76.278472       12.067150       1
       14003.431       86.301535       13.481253       1
       14026.401       91.420639       13.258497       1
       14049.371       71.350083       12.109487       1
       14072.341       86.891497       13.109780       1
       14095.310       90.632232       13.409076       1
       14118.280       93.360937       13.117344       1
       14141.250       87.048751       13.330567       1
       14164.220       95.670299       3498319.9       1
       14187.189       82.111100       13.331411       1
       14210.159       83.853740       12.983866       1
       14233.129       83.237700       13.220469       1
       14256.099       84.769279       13.031639       1
       14279.068       82.553225       13.172043       1
       14302.038       86.887443       12.987469       1
       14325.008       86.389865       13.117879       1
       14347.978       76.065938       12.831586       1
       14370.947       75.948916       13.045481       1
       14393.917       83.349441       12.911537       1
       14416.887       77.690133       13.069295       1
       14439.856       72.330075       11.903169       1
       14462.826       76.390577       13.105280       1
       14485.796       88.999937       12.958276       1
       14508.766       72.097030       11.915563       1
       14531.735       81.958981       12.900907       1
       14554.705       86.594612       13.153124       1
       14577.675       84.971793       12.898638       1
       14600.645       83.343378       13.165121       1
       14623.614       80.898770       12.896038       1
       14646.584       82.626496       13.192794       1
       14669.554       65.125329       11.815687       1
       14692.524       83.559295       13.178652       1
       14715.493       82.987569       12.966616       1
       14738.463       79.472271       13.141824       1
       14761.433       83.312122       12.990429       1
       14784.403       71.283353       13.034746       1
       14807.372       68.530033       12.792070       1
       14830.342       69.302909       13.083316       1
       14853.312       81.489335       12.912300       1
       14876.282       73.772444       13.027113       1
       14899.251       80.470408       12.889356       1
       14922.221       76.273272       13.020141       1
       14945.191       73.421725       12.752693       1
       14968.161       84.611344       13.118103       1
       14991.130       79.672321       12.776707       1
       15014.100       74.089105       12.926743       1
       15037.070       69.839040       12.618663       1
       15060.040       72.569429       12.988316       1
       15083.009       81.502049       12.785418       1
       15105.979       78.712170       13.047929       1
       15128.949       78.809808       12.535452       1
       15151.919       77.807373       12.970674       1
       15174.888       79.597295       12.556799       1
       15197.858       70.618983       11.959257       1
       15220.828       80.439577       12.554973       1
       15243.798       75.949898       12.946771       1
       15266.767       84.893387       12.560897       1
       15289.737       76.829722       13.035706       1
       15312.707       76.743561       12.449677       1
       15335.677       83.473692       13.078843       1
       15358.646       82.339756       12.554110       1
       15381.616       79.784334       13.077048       1
       15404.586       76.577435       12.503915       1
       15427.556       83.410333       13.109937       1
       15450.525       90.186011       12.640732       1
       15473.495       99.502706       13.232771       1
       15496.465       99.130954       12.634748       1
       15519.434       90.685806       13.162715       1
       15542.404       92.637212       12.659610       1
       15565.374       87.354431       13.129948       1
       15588.344       81.079957       12.607291       1
       15611.313       82.884846       13.124723       1
       15634.283       80.799910       12.521844       1
       15657.253       54.005643       10.710361       1
       15680.223       70.898050       12.430597       1
       15703.192       76.360677       12.915734       1
       15726.162       80.731273       12.410416       1
       15749.132       81.318300       12.940392       1
       15772.102       77.342054       12.313867       1
       15795.071       81.286596       12.917570       1
       15818.041       73.484918       12.339901       1
       15841.011       78.141516       12.924134       1
       15863.981       69.107784       12.343385       1
       15886.950       82.124446       12.961527       1
       15909.920       74.362927       12.439690       1
       15932.890       81.766135       12.995060       1
       15955.860       75.970381       12.417327       1
       15978.829       83.480414       12.969985       1
       16001.799       74.342270       12.447018       1
       16024.769       77.870216       13.013004       1
       16047.739       77.560634       12.451590       1
       16070.708       67.764218       11.915972       1
       16093.678       74.953240       12.403815       1
       16116.648       41.002713       10.576275       1
       16139.618       73.919515       12.428863       1
       16162.587       81.642018       13.052780       1
       16185.557       81.966816       12.530031       1
       16208.527       73.029059       13.012901       1
       16231.497       78.980519       12.566271       1
       16254.466       79.014658       13.135009       1
       16277.436       80.756636       12.577855       1
       16300.406       77.290127       13.140686       1
       16323.376       78.623172       12.609124       1
       16346.345       81.895229       13.172276       1
       16369.315       78.665136       12.597005       1
       16392.285       74.214355       13.157964       1
       16415.255       80.513474       12.610241       1
       16438.224       75.914974       13.179451       1
       16461.194       73.970083       12.648121       1
       16484.164       70.421642       13.199167       1
       16507.134       66.805604       12.690711       1
       16530.103       71.539710       13.445888       1
       16553.073       63.590601       12.954762       1
       16576.043       69.890396       13.930266       1
       16599.012       68.548337       13.580076       1
       16621.982       64.623171       14.564919       1
       16644.952       71.807834       14.553349       1
       16667.922       66.699120       15.765559       1
       16690.891       82.392449       15.863772       1
       16713.861       74.249944       17.331619       1
       16736.831       76.598906       17.619071       1
       16759.801       86.021784       19.596203       0
       16782.770       58.493301       19.756726       0
       16805.740       80.439630       22.070295       0
       16828.710       43.653244       22.321684       0
       16851.680       71.111728       24.905022       0
       16874.649       64.538765       25.203996       0
       16897.619       110.09629       27.938741       0
       16920.589       106.02699       28.204030       0
       16943.559      -28.697208       30.539264       0
       16966.528       27.241870       31.181675       0
       16989.498       49.490877       34.387871       0
       17012.468       39.285718       34.775064       0
       17035.438      -15.036374       38.064895       0
       17058.407       27.272623       38.472429       0
       17081.377       93.425132       42.581982       0
       17104.347       32.333799       42.881287       0
       17127.317       68.286349       47.823851       0
       17150.286      -51.138211       48.773029       0
       17173.256       70.176466       54.736592       0
       17196.226      -90.760387       56.052094       0
       17219.196       5.5053926       65.837597       0
       17242.165       44.188636       63.936836       0
       17265.135       83.510165       70.523834       0
       17288.105      -35.180854       71.354512       0
       17311.075       72.953536       77.981228       0
       17334.044      -223.37023       77.746511       0
       17357.014       315.60271       86.843707       0
