#WAVELENGTH FLUX ERROR MASK
       10177.290       2158.5717       201.42995       0
       10199.774      -2094.2962       181.81189       0
       10222.257       2285.9212       180.79187       0
       10244.741      -1854.9176       158.34666       0
       10267.224      -200.25448       153.80646       0
       10289.708      -418.18403       138.16466       0
       10312.192      -441.18276       134.72428       0
       10334.675       729.76496       123.51593       0
       10357.159       229.50486       121.07011       0
       10379.642       57.144869       92.701695       0
       10402.126       548.60648       111.10731       0
       10424.609       484.63311       102.31104       0
       10447.093       300.82155       99.830914       0
       10469.576      -20.977886       72.905277       0
       10492.060       205.79333       85.272648       0
       10514.543       266.78608       74.573283       0
       10537.027      -36.060223       72.063424       0
       10559.510       84.505464       64.589091       0
       10581.994      -75.779505       62.752723       0
       10604.477      -91.064849       57.012922       0
       10626.961       217.13442       57.171004       0
       10649.444       228.04447       51.950732       0
       10671.928       190.24035       50.727029       0
       10694.412       241.50651       45.527587       0
       10716.895       71.959283       43.777207       0
       10739.379       142.28976       39.023666       0
       10761.862       199.75878       37.219697       0
       10784.346       57.907776       32.305663       0
       10806.829       129.95081       31.275674       0
       10829.313       136.79513       28.175969       0
       10851.796       253.79409       28.221245       0
       10874.280       186.36735       25.523138       0
       10896.763       189.38063       25.622211       0
       10919.247       148.05964       23.427377       0
       10941.730       92.115627       23.546494       0
       10964.214       133.42957       21.712163       0
       10986.697       129.80172       21.787624       0
       11009.181       184.22322       20.535887       1
       11031.665       16.123690       11.684528       1
       11054.148       154.80243       19.179439       1
       11076.632       125.59338       19.711835       1
       11099.115       168.14851       18.767302       1
       11121.599       146.44502       19.025826       1
       11144.082       171.00622       17.700463       1
       11166.566       139.97438       18.616650       1
       11189.049       114.11490       17.421089       1
       11211.533       133.68825       18.368637       1
       11234.016       110.37750       17.338263       1
       11256.500       127.06330       18.071573       1
       11278.983       148.13294       17.370548       1
       11301.467       130.50489       17.947469       1
       11323.950       140.24956       17.213502       1
       11346.434       116.37519       17.592566       1
       11368.917       79.163264       13.542963       1
       11391.401       106.22780       17.439352       1
       11413.885       90.130635       13.130725       1
       11436.368       124.18396       17.286894       1
       11458.852       82.558866       13.128095       1
       11481.335       106.73177       17.247919       1
       11503.819       103.80724       13.431402       1
       11526.302       128.19552       17.451109       1
       11548.786       133.20013       16.682359       1
       11571.269       129.03494       17.386445       1
       11593.753       137.54053       16.402744       1
       11616.236       125.28862       17.195244       1
       11638.720       116.01485       13.957518       1
       11661.203       117.06132       16.980918       1
       11683.687       155.09376       16.475441       1
       11706.170       134.21727       16.892984       1
       11728.654       110.73907       13.135554       1
       11751.137       120.86532       16.672634       1
       11773.621       142.12866       16.070239       1
       11796.105       135.94157       16.629638       1
       11818.588       163.08528       15.985738       1
       11841.072       141.30234       16.469713       1
       11863.555       160.98974       15.999925       1
       11886.039       142.26712       16.482698       1
       11908.522       145.02855       15.777076       1
       11931.006       159.73562       16.503173       1
       11953.489       169.74931       15.763675       1
       11975.973       152.10911       16.293610       1
       11998.456       148.66473       15.610114       1
       12020.940       118.18684       15.866648       1
       12043.423       141.36785       15.344845       1
       12065.907       118.44038       15.700535       1
       12088.390       129.75507       15.192487       1
       12110.874       119.67204       15.707266       1
       12133.358       150.19292       15.317707       1
       12155.841       132.67856       15.781403       1
       12178.325       131.16282       15.099507       1
       12200.808       126.64966       15.575997       1
       12223.292       120.75554       15.392324       1
       12245.775       114.55618       15.459916       1
       12268.259       113.08791       15.326121       1
       12290.742       105.05068       15.297231       1
       12313.226       113.14715       15.297627       1
       12335.709       106.70190       15.182755       1
       12358.193       111.96065       14.845100       1
       12380.676       127.31123       15.292007       1
       12403.160       123.45938       15.218778       1
       12425.643       131.48346       15.263420       1
       12448.127       114.78444       15.171696       1
       12470.610       95.963414       14.916751       1
       12493.094       107.27495       15.115828       1
       12515.578       114.04225       15.016126       1
       12538.061       111.44696       15.044600       1
       12560.545       116.86377       14.966082       1
       12583.028       101.91129       14.938357       1
       12605.512       109.56215       14.935756       1
       12627.995       114.19741       15.001430       1
       12650.479       123.49327       14.965843       1
       12672.962       116.69389       15.009304       1
       12695.446       133.58415       14.842515       1
       12717.929       120.79303       14.947063       1
       12740.413       123.15019       14.857024       1
       12762.896       107.33119       14.782713       1
       12785.380       123.94976       14.740369       1
       12807.863       116.29381       14.785809       1
       12830.347       88.606560       12.124983       1
       12852.830       118.35332       14.713223       1
       12875.314       125.76643       14.684896       1
       12897.798       56.779569       11.400711       1
       12920.281       95.545788       14.345954       1
       12942.765       114.95316       14.608763       1
       12965.248       124.07251       14.558728       1
       12987.732       120.87137       14.575575       1
       13010.215       129.81510       14.459514       1
       13032.699       109.72143       14.443210       1
       13055.182       112.13335       14.308803       1
       13077.666       127.52300       14.539493       1
       13100.149       114.18181       14.303984       1
       13122.633       129.10788       14.585273       1
       13145.116       121.92754       14.287893       1
       13167.600       99.092731       14.160404       1
       13190.083       109.75926       14.145735       1
       13212.567       107.36621       14.240570       1
       13235.051       111.29490       13.982958       1
       13257.534       101.14919       14.154162       1
       13280.018       68.707566       11.373272       1
       13302.501       113.94737       14.174136       1
       13324.985       108.38992       13.895169       1
       13347.468       91.238793       14.023539       1
       13369.952       112.81881       13.986019       1
       13392.435       107.53075       14.063284       1
       13414.919       103.83192       13.778443       1
       13437.402       85.009402       13.863750       1
       13459.886       99.821628       13.745457       1
       13482.369       96.823023       13.887566       1
       13504.853       73.268110       11.267609       1
       13527.336       94.838275       13.854120       1
       13549.820       113.42479       13.732105       1
       13572.303       109.07342       13.950463       1
       13594.787       110.36104       13.817446       1
       13617.271       99.873815       13.791774       1
       13639.754       104.37849       13.540031       1
       13662.238       108.24106       13.905118       1
       13684.721       86.690971       13.385848       1
       13707.205       118.73977       14.042200       1
       13729.688       92.054365       13.598155       1
       13752.172       110.82223       13.941219       1
       13774.655       115.83529       13.844830       1
       13797.139       105.04213       13.989941       1
       13819.622       99.575540       13.725807       1
       13842.106       114.06601       13.997893       1
       13864.589       106.61619       13.686490       1
       13887.073       115.74553       14.036230       1
       13909.556       113.34101       13.696575       1
       13932.040       119.55116       14.072407       1
       13954.523       116.82286       13.703507       1
       13977.007       125.64557       14.077229       1
       13999.491       124.74457       13.708480       1
       14021.974       123.91005       13.912266       1
       14044.458       122.05916       13.709187       1
       14066.941       134.19210       14.018217       1
       14089.425       118.45553       13.584833       1
       14111.908       126.83209       13.895966       1
       14134.392       126.18967       13.623352       1
       14156.875       111.12804       13.730991       1
       14179.359       111.57679       13.483858       1
       14201.842       114.39437       13.802922       1
       14224.326       127.77031       13.600079       1
       14246.809       127.36875       13.860407       1
       14269.293       114.53162       13.419342       1
       14291.776       115.57576       13.582723       1
       14314.260       107.93938       13.318286       1
       14336.744       122.01266       13.655127       1
       14359.227       109.34712       13.207840       1
       14381.711       110.04935       13.524838       1
       14404.194       119.74806       13.455865       1
       14426.678       134.97025       13.720938       1
       14449.161       124.93218       13.422415       1
       14471.645       118.22374       13.555171       1
       14494.128       106.92804       13.277304       1
       14516.612       117.96536       13.530784       1
       14539.095       110.62156       13.262992       1
       14561.579       120.34228       13.645825       1
       14584.062       109.76227       13.236830       1
       14606.546       111.73183       13.548980       1
       14629.029       102.28377       14.297062       1
       14651.513       125.13971       4908573.4       1
       14673.996       106.44957       13.201827       1
       14696.480       128.44292       13.545464       1
       14718.964       67.040468       10.827051       1
       14741.447       120.31684       13.493300       1
       14763.931       122.36454       13.470004       1
       14786.414       122.34161       13.522626       1
       14808.898       118.61358       13.380795       1
       14831.381       102.35519       13.157014       1
       14853.865       94.625124       13.091329       1
       14876.348       119.93060       13.235317       1
       14898.832       117.54458       13.278286       1
       14921.315       129.36746       13.222962       1
       14943.799       110.75913       13.131600       1
       14966.282       101.81793       12.772472       1
       14988.766       103.14521       13.033919       1
       15011.249       105.33180       12.757779       1
       15033.733       106.93848       13.075349       1
       15056.216       129.79407       13.074339       1
       15078.700       117.96523       13.233500       1
       15101.184       115.41215       12.886708       1
       15123.667       111.88839       13.140484       1
       15146.151       120.33753       12.958692       1
       15168.634       88.269958       12.919299       1
       15191.118       101.08010       12.347622       1
       15213.601       99.630132       13.013222       1
       15236.085       95.618907       12.306719       1
       15258.568       96.502226       13.008475       1
       15281.052       103.11943       12.498683       1
       15303.535       96.559477       13.041983       1
       15326.019       91.637714       12.280946       1
       15348.502       92.679578       12.986444       1
       15370.986       96.844588       12.493275       1
       15393.469       99.618453       13.037915       1
       15415.953       90.624622       12.397250       1
       15438.437       103.85651       13.052435       1
       15460.920       93.298990       12.439871       1
       15483.404       99.440075       12.999523       1
       15505.887       96.422284       12.488032       1
       15528.371       117.52122       13.243893       1
       15550.854       92.565612       12.489315       1
       15573.338       100.25906       12.896460       1
       15595.821       92.334734       12.499562       1
       15618.305       97.511225       12.911744       1
       15640.788       98.751870       12.469713       1
       15663.272       96.095956       13.006047       1
       15685.755       108.86327       12.425425       1
       15708.239       107.21824       13.053391       1
       15730.722       112.85668       12.545041       1
       15753.206       101.70854       12.720571       1
       15775.689       90.212130       12.325701       1
       15798.173       93.804835       12.861211       1
       15820.657       105.32031       12.482678       1
       15843.140       100.89031       12.990411       1
       15865.624       89.697836       12.339719       1
       15888.107       93.567284       12.849114       1
       15910.591       103.32098       12.434231       1
       15933.074       86.552711       12.893655       1
       15955.558       95.339172       12.483041       1
       15978.041       103.00150       12.964755       1
       16000.525       98.720220       12.454111       1
       16023.008       83.754072       12.792502       1
       16045.492       109.39902       12.600186       1
       16067.975       99.306501       13.060865       1
       16090.459       104.86918       12.560395       1
       16112.942       94.697848       12.993594       1
       16135.426       81.415924       12.421950       1
       16157.909       88.259241       13.069025       1
       16180.393       88.393695       12.255649       1
       16202.877       89.909298       13.030083       1
       16225.360       92.122707       12.584929       1
       16247.844       90.655192       13.197959       1
       16270.327       82.529928       12.543342       1
       16292.811       101.23296       13.274371       1
       16315.294       91.872055       12.663270       1
       16337.778       109.18555       13.357147       1
       16360.261       90.990567       12.369359       1
       16382.745       101.75354       13.346003       1
       16405.228       93.789271       12.699222       1
       16427.712       70.860952       10.953793       1
       16450.195       85.269010       12.711763       1
       16472.679       115.86806       13.527111       1
       16495.162       89.311203       12.922678       1
       16517.646       74.941146       13.522522       1
       16540.129       96.744071       13.343149       1
       16562.613       93.915910       14.061413       1
       16585.097       92.627685       13.883793       1
       16607.580       103.78930       14.997914       1
       16630.064       88.582542       14.811955       1
       16652.547       118.70060       16.336630       1
       16675.031       129.84545       16.376617       1
       16697.514       130.36168       17.815249       1
       16719.998       117.10679       18.131141       1
       16742.481       127.91061       19.925499       1
       16764.965       131.91877       20.483968       0
       16787.448       114.45061       22.724320       0
       16809.932       132.89994       23.241890       0
       16832.415       132.54416       25.645708       0
       16854.899       95.501502       25.752465       0
       16877.382       83.462828       28.163378       0
       16899.866       214.66701       28.967596       0
       16922.350       92.619883       31.399608       0
       16944.833       49.600139       31.628133       0
       16967.317       18.625262       34.757426       0
       16989.800       114.89598       35.317712       0
       17012.284       188.63105       38.860525       0
       17034.767       42.664222       39.055033       0
       17057.251       60.717111       42.616478       0
       17079.734       63.074331       43.308778       0
       17102.218       66.580597       48.143739       0
       17124.701      -59.270290       48.977448       0
       17147.185       68.559066       55.088719       0
       17169.668       112.47531       56.880071       0
