#WAVELENGTH FLUX ERROR MASK
       7496.9478       2898.3604       18859.143       0
       7509.0949       8831.2270       19860.386       0
       7521.2421       9185.4035       13309.468       0
       7533.3892      -1206.5195       14202.651       0
       7545.5364      -2391.2039       9201.8888       0
       7557.6836      -3166.6772       9116.4405       0
       7569.8307       412.41725       5798.0473       0
       7581.9779       144.41469       5784.0299       0
       7594.1251      -518.00324       3784.1310       0
       7606.2722       3056.4544       3979.9055       0
       7618.4194       234.87224       2704.2679       0
       7630.5665       2284.0213       2919.2288       0
       7642.7137      -609.17075       2004.7171       0
       7654.8609       57.432276       2155.2022       0
       7667.0080      -31.057155       1448.6218       0
       7679.1552       1673.6424       1533.2722       0
       7691.3024       206.68865       1013.1947       0
       7703.4495       949.16537       1075.4680       0
       7715.5967       365.93724       734.57295       0
       7727.7438       162.61462       809.23795       0
       7739.8910       7.7549490       580.77252       0
       7752.0382      -49.043557       664.60325       0
       7764.1853       548.05997       492.91395       0
       7776.3325       55.054628       566.12263       0
       7788.4797       539.21897       416.29870       0
       7800.6268       123.98597       470.98085       0
       7812.7740       78.809241       337.54091       0
       7824.9211       385.22105       385.21261       0
       7837.0683       91.376586       279.24739       0
       7849.2155       240.36185       308.42813       0
       7861.3626       145.51747       237.27094       0
       7873.5098      -108.08726       255.01970       0
       7885.6570       60.435709       188.43202       0
       7897.8041       311.10210       222.69231       0
       7909.9513       59.501283       166.26966       0
       7922.0984       224.61365       198.89760       0
       7934.2456      0.52961605       149.16863       0
       7946.3928      -67.579136       177.86839       0
       7958.5399      -9.1688328       135.98883       0
       7970.6871       132.77562       163.75621       0
       7982.8343       168.70189       126.36956       0
       7994.9814       23.340453       151.65054       0
       8007.1286       115.28849       117.88499       0
       8019.2757       295.15572       143.86566       0
       8031.4229       129.32211       111.42223       0
       8043.5701       17.956344       110.40214       0
       8055.7172      -9.2934552       105.86106       0
       8067.8644       63.146522       130.76677       0
       8080.0116       95.192012       111.10464       0
       8092.1587       61.599910       125.81733       0
       8104.3059       101.44790       99.490938       0
       8116.4530       21.843520       121.90434       0
       8128.6002       87.756961       96.026803       0
       8140.7474       108.14444       118.08821       0
       8152.8945       50.288364       96.707689       1
       8165.0417       78.252927       105.54659       1
       8177.1889       32.074599       93.006766       1
       8189.3360       119.62879       122.65712       1
       8201.4832       86.374011       92.754301       1
       8213.6304       130.27396       105.82953       1
       8225.7775       118.48226       85.674782       1
       8237.9247       86.666586       100.37117       1
       8250.0718       89.326367       81.535275       1
       8262.2190       135.00852       95.306207       1
       8274.3662       69.385923       74.225067       1
       8286.5133       76.191412       90.724306       1
       8298.6605       94.047361       71.047694       1
       8310.8077       53.487390       86.524428       1
       8322.9548       73.379223       68.075852       1
       8335.1020       92.986735       84.236883       1
       8347.2491       90.330021       78.949999       1
       8359.3963       101.35271       82.003504       1
       8371.5435       112.29177       76.729850       1
       8383.6906       135.84143       80.213730       1
       8395.8378       65.448770       63.042807       1
       8407.9850       95.384578       77.935867       1
       8420.1321       77.041626       61.035868       1
       8432.2793       89.535395       75.542979       1
       8444.4264       68.499536       59.213668       1
       8456.5736       98.374739       73.536749       1
       8468.7208       91.476816       57.471418       1
       8480.8679       45.731404       70.944851       1
       8493.0151       55.902462       55.894325       1
       8505.1623       41.163612       68.747897       1
       8517.3094       62.007734       54.727787       1
       8529.4566       65.954399       67.842400       1
       8541.6037       60.280892       53.653914       1
       8553.7509       98.642022       66.443752       1
       8565.8981       6.6851306       63.386351       1
       8578.0452       91.641489       66.379467       1
       8590.1924       111.95023       52.883901       1
       8602.3396       118.67402       65.969001       1
       8614.4867       92.149160       52.713096       1
       8626.6339       27.081950       64.491278       1
       8638.7810       79.627389       52.043766       1
       8650.9282       54.520496       64.188372       1
       8663.0754       79.019291       54.597783       1
       8675.2225       78.973654       63.318391       1
       8687.3697       97.149667       53.357306       1
       8699.5169       82.077464       61.343698       1
       8711.6640       81.874244       47.929829       1
       8723.8112       78.372352       59.115903       1
       8735.9583       114.59044       46.490394       1
       8748.1055       97.372752       57.316667       1
       8760.2527       73.877604       45.091042       1
       8772.3998       59.811070       55.539086       1
       8784.5470       101.49592       44.371390       1
       8796.6942       99.903747       54.396282       1
       8808.8413       109.33633       43.542597       1
       8820.9885       76.785436       53.665790       1
       8833.1356       53.443847       42.309591       1
       8845.2828       112.22458       52.735836       1
       8857.4300       100.02198       41.862606       1
       8869.5771       52.006548       51.014500       1
       8881.7243       97.544186       40.934689       1
       8893.8715       67.864579       50.442386       1
       8906.0186       125.37131       42.972341       1
       8918.1658       98.584001       50.090960       1
       8930.3129       84.837905       39.664834       1
       8942.4601       126.34352       49.545752       1
       8954.6073       92.841535       38.945612       1
       8966.7544       109.38789       48.339242       1
       8978.9016       80.912495       38.084635       1
       8991.0488       111.30271       47.535770       1
       9003.1959       90.524019       37.581697       1
       9015.3431       116.54543       47.137301       1
       9027.4902       73.063209       37.055383       1
       9039.6374       92.159345       46.602904       1
       9051.7846       110.74280       37.087094       1
       9063.9317       116.49661       46.406594       1
       9076.0789       73.428164       36.333659       1
       9088.2261       109.43006       45.645292       1
       9100.3732       107.51711       36.043694       1
       9112.5204       90.630854       44.702989       1
       9124.6675       139.68611       35.489188       1
       9136.8147       104.86728       43.806049       1
       9148.9619       156.02215       36.735036       1
       9161.1090       101.65226       42.901558       1
       9173.2562       76.456888       33.740596       1
       9185.4034       106.55643       42.157087       1
       9197.5505       86.050163       33.245143       1
       9209.6977       119.29187       41.464728       1
       9221.8448       89.909841       32.682847       1
       9233.9920       109.25160       41.100137       1
       9246.1392       114.34196       32.384271       1
       9258.2863       86.945294       12338353.       1
       9270.4335       100.72629       36.460726       1
       9282.5807       88.169865       40.095594       1
       9294.7278       94.332806       31.663031       1
       9306.8750       104.07217       41.964536       1
       9319.0221       93.837731       31.301948       1
       9331.1693       117.12461       39.444622       1
       9343.3165       104.27110       32.635516       1
       9355.4636       100.05949       39.166220       1
       9367.6108       107.02937       32.401225       1
       9379.7580       121.65008       39.126774       1
       9391.9051       81.164221       31.846554       1
       9404.0523       131.89619       38.220813       1
       9416.1994       111.80129       34.458439       1
       9428.3466       132.30465       37.632625       1
       9440.4938       123.54910       29.836427       1
       9452.6409       103.68381       37.365824       1
       9464.7881       127.02883       29.553092       1
       9476.9353       78.300356       31.558641       1
       9489.0824       127.94628       29.147519       1
       9501.2296       153.90478       36.516572       1
       9513.3768       150.99090       36.911450       1
       9525.5239       161.27904       36.288559       1
       9537.6711       126.19976       30.503771       1
       9549.8182       130.93461       35.585375       1
       9561.9654       115.03286       28.489594       1
       9574.1126       117.83512       35.200924       1
       9586.2597       138.56404       28.075923       1
       9598.4069       141.44844       35.042427       1
       9610.5541       128.45988       27.806250       1
       9622.7012       127.84224       34.557745       1
       9634.8484       126.42968       27.521340       1
       9646.9955       128.85422       34.112645       1
       9659.1427       109.24838       27.053476       1
       9671.2899       107.79690       33.788174       1
       9683.4370       116.73965       27.013968       1
       9695.5842       97.857303       33.537426       1
       9707.7314       131.39074       27.022272       1
       9719.8785       119.30416       33.477509       1
       9732.0257       113.45786       26.527388       1
       9744.1728       141.35951       33.380977       1
       9756.3200       130.04648       26.329421       1
       9768.4672       103.38155       32.753865       1
       9780.6143       120.31085       31.588659       1
       9792.7615       108.36479       12079725.       1
       9804.9087       89.150689       25.784104       1
       9817.0558       133.01449       32.464372       1
       9829.2030       105.64838       25.738882       1
       9841.3501       134.18986       32.272528       1
       9853.4973       128.41442       25.795045       1
       9865.6445       135.19233       32.465477       1
       9877.7916       145.16125       25.784444       1
       9889.9388       108.57653       32.007558       1
       9902.0860       114.36389       25.517794       1
       9914.2331       135.73711       31.971509       1
       9926.3803       141.52427       25.563088       1
       9938.5274       121.88154       31.704004       1
       9950.6746       139.04747       25.274028       1
       9962.8218       136.60882       31.427684       1
       9974.9689       133.55717       31.250350       1
       9987.1161       117.78681       30.874326       1
       9999.2633       128.54063       24.560036       1
       10011.410       125.65424       30.536168       1
       10023.558       143.05012       24.455751       1
       10035.705       141.69783       30.417275       1
       10047.852       111.27532       24.093985       1
       10059.999       136.51528       30.428187       1
       10072.146       122.47678       24.237529       1
       10084.293       123.24064       30.129913       1
       10096.441       126.11477       27.510032       1
       10108.588       116.65108       29.854503       1
       10120.735       126.03238       28.421399       1
       10132.882       136.86990       30.208842       1
       10145.029       102.12133       27.133110       1
       10157.176       109.40907       29.568633       1
       10169.324       133.16797       23.752287       1
       10181.471       104.91546       29.503230       1
       10193.618       118.13574       25.489341       1
       10205.765       118.66092       29.303279       1
       10217.912       104.11711       23.288954       1
       10230.059       128.97599       29.361280       1
       10242.207       125.45620       23.182852       1
       10254.354       116.65365       28.494748       1
       10266.501       116.55454       22.823165       1
       10278.648       134.70670       28.431727       1
       10290.795       119.56243       22.602598       1
       10302.942       117.45994       28.187014       1
       10315.089       127.02421       22.500394       1
       10327.237       146.32893       28.116814       1
       10339.384       135.06141       22.360370       1
       10351.531       140.42001       27.784914       1
       10363.678       123.37119       22.124964       1
       10375.825       84.049455       25.049895       1
       10387.972       117.65412       22.154314       1
       10400.120       139.40359       27.883187       1
       10412.267       131.78376       22.191689       1
       10424.414       103.36574       27.485025       1
       10436.561       121.28784       22.004435       1
       10448.708       141.64330       27.658801       1
       10460.855       131.73109       22.046871       1
       10473.003       122.19733       27.494913       1
       10485.150       127.50342       21.951117       1
       10497.297       130.39400       27.386467       1
       10509.444       126.77463       21.908975       1
       10521.591       138.05403       27.665165       1
       10533.738       124.86010       21.795558       1
       10545.886       129.75407       27.471179       1
       10558.033       145.01385       27.869716       1
       10570.180       114.04835       27.167191       1
       10582.327       140.17005       21.989367       1
       10594.474       142.26313       27.438092       1
       10606.621       145.11620       21.872747       1
       10618.769       120.96818       26.851567       1
       10630.916       134.56486       21.495628       1
       10643.063       152.87693       27.127579       1
       10655.210       123.07196       21.245707       1
       10667.357       116.31919       26.481343       1
       10679.504       132.15309       21.128512       1
       10691.652       162.59608       26.642516       1
       10703.799       119.25904       21.036514       1
       10715.946       121.12404       26.425644       1
       10728.093       132.01524       21.095809       1
       10740.240       120.14744       26.347463       1
       10752.387       133.83766       21.089838       1
       10764.535       125.77727       26.364096       1
       10776.682       140.90583       21.030149       1
       10788.829       125.95533       26.224327       1
       10800.976       119.66198       20.824423       1
       10813.123       123.90667       26.051220       1
       10825.270       148.98919       21.052680       1
       10837.417       140.32250       26.198219       1
       10849.565       134.19330       20.739302       1
       10861.712       143.05056       29.113333       1
       10873.859       143.54482       20.647613       1
       10886.006       144.78956       25.997848       1
       10898.153       138.82789       20.646558       1
       10910.300       132.97198       25.723863       1
       10922.448       134.61301       20.553593       1
       10934.595       145.63575       25.820838       1
       10946.742       139.18672       20.591153       1
       10958.889       132.42378       25.655525       1
       10971.036       135.62230       20.618803       1
       10983.183       127.09269       25.722969       1
       10995.331       132.52595       20.582075       1
       11007.478       149.67431       25.944737       1
       11019.625       125.99062       20.468137       1
       11031.772       134.59425       25.608043       1
       11043.919       139.31936       23.351498       1
       11056.066       140.41257       25.708960       1
       11068.214       128.50362       20.407972       1
       11080.361       128.63320       25.537101       1
       11092.508       139.35438       20.750373       1
       11104.655       138.28899       25.642583       1
       11116.802       134.30186       20.435018       1
       11128.949       148.00364       25.779556       1
       11141.097       138.05600       20.492862       1
       11153.244       122.96459       25.448881       1
       11165.391       125.74849       20.439026       1
       11177.538       130.04956       27.268401       1
       11189.685       126.42043       20.461982       1
       11201.832       116.20321       25.268236       0
       11213.980       131.93827       20.439272       0
       11226.127       122.47137       25.352996       0
       11238.274       132.71759       20.368289       0
       11250.421       139.46705       25.514645       0
       11262.568       144.10328       23.630828       0
       11274.715       145.08972       25.616140       0
       11286.862       118.78021       23.962248       0
       11299.010       129.05576       25.549347       0
       11311.157       131.13823       20.443418       0
       11323.304       105.06228       25.479925       0
       11335.451       112.94836       20.745658       0
       11347.598       115.21850       26.381599       0
       11359.745       123.24814       22.056687       0
       11371.893       88.288521       25.574898       0
       11384.040       144.30558       24.725962       0
       11396.187       103.06611       32.988853       0
       11408.334       90.230666       28.893191       0
       11420.481       83.534942       40.300490       0
       11432.628       128.27043       36.386012       0
       11444.776       123.18986       51.751129       0
       11456.923       101.49727       49.142037       0
       11469.070       121.76821       65.797376       0
       11481.217       83.084298       59.088275       0
       11493.364       125.01253       82.192192       0
       11505.511       105.09005       72.834057       0
       11517.659       73.028641       100.41398       0
       11529.806       130.15921       90.205787       0
       11541.953       104.87833       127.77364       0
       11554.100       109.47824       118.12431       0
       11566.247       88.359242       174.82847       0
       11578.394       132.33335       169.53009       0
       11590.542      -56.630583       259.64546       0
       11602.689       249.54725       260.24188       0
       11614.836      -1.4905782       400.09508       0
       11626.983       276.52565       396.40401       0
       11639.130       36.336713       598.50714       0
       11651.277       40.613751       578.94869       0
       11663.425       1234.2736       882.83082       0
       11675.572      -695.07143       874.51820       0
       11687.719       846.99123       1431.0929       0
       11699.866      -466.38253       1477.8789       0
       11712.013       1102.7662       2409.5460       0
       11724.160       1082.8870       2538.5358       0
       11736.308      -7.6091063       4059.2856       0
       11748.455      -846.98560       3708.7093       0
       11760.602       2746.1471       4928.1372       0
       11772.749       353.11600       3950.9599       0
       11784.896       1096.6040       4806.3911       0
       11797.043       309.58775       3724.3763       0
       11809.190       3045.9347       4675.5540       0
       11821.338       86.592797       3893.5022       0
       11833.485      -2697.3408       5280.4544       0
       11845.632       3895.2307       4876.1204       0
       11857.779       548.72061       6455.6375       0
