#WAVELENGTH FLUX ERROR MASK
       7504.5434       12589.911       15156.564       0
       7516.7318       11514.114       15851.080       0
       7528.9202      -1937.1120       10779.815       0
       7541.1087       7858.4687       11219.463       0
       7553.2971       1159.0929       7143.3198       0
       7565.4855       5450.6275       7064.5324       0
       7577.6740       744.02168       4468.9855       0
       7589.8624       4390.1676       4537.1769       0
       7602.0508       1634.3691       3011.4109       0
       7614.2393       3126.3241       3181.3557       0
       7626.4277       1332.0308       2188.7861       0
       7638.6161       1955.6646       2359.5381       0
       7650.8046       721.87071       1630.4849       0
       7662.9930       1775.7997       1726.2532       0
       7675.1815       810.36875       1153.7452       0
       7687.3699       2291.8159       1211.0365       0
       7699.5583      -138.62047       798.35663       0
       7711.7468       901.80201       862.32113       0
       7723.9352       265.53071       607.45279       0
       7736.1236       562.62202       671.89125       0
       7748.3121       547.38448       493.23371       0
       7760.5005      -295.62334       482.79822       0
       7772.6889       343.83642       418.66209       0
       7784.8774       897.90935       476.91803       0
       7797.0658       447.16656       372.56395       0
       7809.2542       246.40234       392.10791       0
       7821.4427       326.62062       284.78644       0
       7833.6311       212.08644       316.22481       0
       7845.8195       317.72580       230.73470       0
       7858.0080       218.56796       257.63758       0
       7870.1964       291.30938       190.28834       0
       7882.3849       171.78294       217.01558       0
       7894.5733       175.19764       162.69592       0
       7906.7617       282.89240       190.56954       0
       7918.9502       219.49301       144.69007       0
       7931.1386       250.83523       170.47913       0
       7943.3270       172.35497       130.49165       0
       7955.5155       134.02937       154.33821       0
       7967.7039       119.47344       119.03206       0
       7979.8923       84.001495       141.59825       0
       7992.0808       127.98997       110.37441       0
       8004.2692       157.27211       132.61914       0
       8016.4576       191.54607       103.82793       0
       8028.6461       253.71851       126.14025       0
       8040.8345       169.94764       98.507194       0
       8053.0229       138.86308       119.60004       0
       8065.2114       70.638028       93.444621       0
       8077.3998       229.23523       115.00434       0
       8089.5883       146.97150       90.265506       0
       8101.7767       113.98647       110.09418       0
       8113.9651       108.39713       86.406829       0
       8126.1536       123.32609       105.38610       0
       8138.3420       69.929925       83.008087       0
       8150.5304      -21.656949       91.528622       1
       8162.7189       89.142214       79.588736       1
       8174.9073       83.833635       96.709805       1
       8187.0957       76.701991       79.708399       1
       8199.2842       28.862396       92.889068       1
       8211.4726       132.63077       77.885029       1
       8223.6610       120.69195       89.539528       1
       8235.8495       106.12045       69.469888       1
       8248.0379       72.033865       84.325526       1
       8260.2263       116.73692       66.305348       1
       8272.4148       15.258133       79.949917       1
       8284.6032       133.62673       63.341151       1
       8296.7917       77.649088       76.380466       1
       8308.9801       69.818442       60.126507       1
       8321.1685       113.63541       73.266360       1
       8333.3570       74.353220       58.008568       1
       8345.5454       101.58629       71.383309       1
       8357.7338       81.014887       72.691667       1
       8369.9223       77.016315       69.187188       1
       8382.1107       61.601251       54.768650       1
       8394.2991       78.913835       67.363480       1
       8406.4876       86.507950       53.571750       1
       8418.6760       78.046061       65.402251       1
       8430.8644       86.265684       52.104082       1
       8443.0529       22.149370       62.988857       1
       8455.2413       80.426205       50.228995       1
       8467.4297       92.173262       61.517707       1
       8479.6182       112.85125       57.697445       1
       8491.8066       70.095244       59.742267       1
       8503.9951       89.918617       47.801771       1
       8516.1835       87.400227       58.670562       1
       8528.3719       91.582937       46.870608       1
       8540.5604       83.355858       57.590446       1
       8552.7488       91.893367       46.085460       1
       8564.9372       51.495868       56.496492       1
       8577.1257       88.076589       45.712806       1
       8589.3141       75.786507       58.087227       1
       8601.5025       47.310142       45.122187       1
       8613.6910       49.111241       55.948159       1
       8625.8794       78.026278       45.256155       1
       8638.0678       96.059594       55.799999       1
       8650.2563       132.37947       44.778809       1
       8662.4447       108.63912       55.172071       1
       8674.6331       120.35315       53.408856       1
       8686.8216       73.674414       53.417289       1
       8699.0100       117.48648       43.288581       1
       8711.1985       114.66251       51.880550       1
       8723.3869       69.608735       40.661838       1
       8735.5753       62.010512       49.558331       1
       8747.7638       102.11512       39.528029       1
       8759.9522       124.49719       48.850642       1
       8772.1406       46.725077       38.408346       1
       8784.3291       92.320805       47.723060       1
       8796.5175       79.954395       38.006889       1
       8808.7059       128.62766       46.880683       1
       8820.8944       91.485072       37.354090       1
       8833.0828       102.04525       45.792825       1
       8845.2712       98.130481       36.530444       1
       8857.4597       57.432845       44.678490       1
       8869.6481       106.31643       35.879357       1
       8881.8365       99.763504       44.207026       1
       8894.0250       92.507419       35.138335       1
       8906.2134       114.49260       43.785442       1
       8918.4019       93.053734       34.878639       1
       8930.5903       105.22413       43.048594       1
       8942.7787       94.419554       34.274987       1
       8954.9672       89.110523       42.177220       1
       8967.1556       114.10152       33.685334       1
       8979.3440       80.162280       41.108540       1
       8991.5325       74.195878       32.873745       1
       9003.7209       102.21661       40.569672       1
       9015.9093       75.404157       32.426735       1
       9028.0978       109.67520       40.529624       1
       9040.2862       92.451228       32.701468       1
       9052.4746       67.894198       40.026479       1
       9064.6631       84.796928       32.136302       1
       9076.8515       107.75963       39.821915       1
       9089.0399       97.554901       31.782946       1
       9101.2284       87.056177       39.086981       1
       9113.4168       88.592857       31.153984       1
       9125.6053       123.12940       38.474774       1
       9137.7937       102.07011       31.193345       1
       9149.9821       36.508370       35.250721       1
       9162.1706       99.101826       30.430113       1
       9174.3590       91.521410       36.793916       1
       9186.5474       84.906421       29.766926       1
       9198.7359       93.363458       36.223349       1
       9210.9243       90.461899       28.958789       1
       9223.1127       100.16540       36.303365       1
       9235.3012       94.999451       37.783495       1
       9247.4896       126.82086       35.500081       1
       9259.6780       93.923854       28.163927       1
       9271.8665       98.459439       35.908403       1
       9284.0549       78.953620       27.860080       1
       9296.2433       115.04090       35.199510       1
       9308.4318       101.41497       27.761571       1
       9320.6202       22.687638       31.379409       1
       9332.8087       92.227774       27.584875       1
       9344.9971       104.11193       33.869206       1
       9357.1855       91.759180       27.146311       1
       9369.3740       96.360051       33.785468       1
       9381.5624       85.935443       26.966028       1
       9393.7508       90.858923       33.262144       1
       9405.9393       80.516786       26.678138       1
       9418.1277       99.282913       33.124584       1
       9430.3161       111.32181       27.383490       1
       9442.5046       121.33917       32.823120       1
       9454.6930       115.24204       26.255775       1
       9466.8814       130.86430       32.600087       1
       9479.0699       80.288714       25.726836       1
       9491.2583       105.48445       31.937866       1
       9503.4467       97.834565       25.516197       1
       9515.6352       110.89821       31.661764       1
       9527.8236       91.282837       25.258368       1
       9540.0121       100.33945       31.333702       1
       9552.2005       100.54727       25.083342       1
       9564.3889       106.56600       31.287834       1
       9576.5774       101.90351       24.785741       1
       9588.7658      -83.833283       21.664620       1
       9600.9542       106.08370       24.617156       1
       9613.1427       109.56532       30.568607       1
       9625.3311       77.168971       25.893450       1
       9637.5195       116.71776       30.203636       1
       9649.7080       97.621344       30.426415       1
       9661.8964       103.88726       30.098700       1
       9674.0848       113.95784       24.266424       1
       9686.2733       87.495290       29.389712       1
       9698.4617       83.072512       23.858401       1
       9710.6501      -1.0297945       25.979536       1
       9722.8386       84.896427       23.548001       1
       9735.0270       116.73877       29.446559       1
       9747.2155       97.000789       23.538167       1
       9759.4039       136.33930       29.471867       1
       9771.5923       114.30192       25.032595       1
       9783.7808       134.29780       29.203981       1
       9795.9692       105.80765       23.469321       1
       9808.1576       119.99648       28.936388       1
       9820.3461       107.39373       23.222318       1
       9832.5345       111.90841       28.828657       1
       9844.7229       104.28154       23.071738       1
       9856.9114       119.32717       28.709640       1
       9869.0998       112.10673       22.957687       1
       9881.2882       142.02722       29.379697       1
       9893.4767       111.68131       22.987049       1
       9905.6651       155.94544       28.766971       1
       9917.8535       96.859025       27.440732       1
       9930.0420       116.92588       28.077223       1
       9942.2304       101.02813       22.531266       1
       9954.4189       70.773104       25.472285       1
       9966.6073       102.95843       22.286464       1
       9978.7957       110.76309       27.469257       1
       9990.9842       102.83580       22.784920       1
       10003.173       105.44919       27.276188       1
       10015.361       100.44197       21.728496       1
       10027.549       130.93888       27.069113       1
       10039.738       108.14924       24.639321       1
       10051.926       106.64809       26.721380       1
       10064.115       121.37265       21.690198       1
       10076.303       111.88129       26.502887       1
       10088.492       114.11884       21.976274       1
       10100.680       114.16144       26.657799       1
       10112.869       97.405810       21.493195       1
       10125.057       132.23698       26.494071       1
       10137.245       108.74214       21.355602       1
       10149.434       105.99371       26.293977       1
       10161.622       104.29781       21.143350       1
       10173.811       122.62503       26.190220       1
       10185.999       94.777598       20.981786       1
       10198.188       105.60108       25.851622       1
       10210.376       100.66673       20.984113       1
       10222.564       99.062645       25.651887       1
       10234.753       109.39590       20.747394       1
       10246.941       107.14391       25.281907       1
       10259.130       92.953153       23.253294       1
       10271.318       104.54673       25.000907       1
       10283.507       116.02836       20.377841       1
       10295.695       116.64833       24.906321       1
       10307.883       115.58728       20.188623       1
       10320.072       128.58312       24.589174       1
       10332.260       117.21252       20.135188       1
       10344.449       101.01245       24.355250       1
       10356.637       111.35747       19.930818       1
       10368.826       116.81435       24.466172       1
       10381.014       119.49918       20.005148       1
       10393.203      -9.6378615       20.489236       1
       10405.391       107.40109       19.783859       1
       10417.579       107.38864       24.281988       1
       10429.768       114.73458       19.819947       1
       10441.956       110.81059       24.418135       1
       10454.145       119.03199       19.932947       1
       10466.333       98.989282       24.263261       1
       10478.522       111.92943       19.549249       1
       10490.710       116.74952       23.972036       1
       10502.898       124.81935       19.635163       1
       10515.087       84.013871       23.807524       1
       10527.275       102.02956       19.573490       1
       10539.464       103.27535       24.206585       1
       10551.652       111.68401       19.644529       1
       10563.841       117.03228       24.279480       1
       10576.029       103.07462       19.397228       1
       10588.217       108.88936       24.149220       1
       10600.406       120.80480       19.400923       1
       10612.594       95.479478       23.940680       1
       10624.783       124.70134       19.336139       1
       10636.971       122.46933       23.749753       1
       10649.160       111.39283       19.067921       1
       10661.348       120.21864       23.672286       1
       10673.537       111.99303       18.779151       1
       10685.725       138.74260       23.762940       1
       10697.913       103.16292       18.695316       1
       10710.102       122.78170       23.544474       1
       10722.290       129.70695       18.818117       1
       10734.479       103.66823       23.187731       1
       10746.667       119.33022       18.651907       1
       10758.856       120.21468       23.225674       1
       10771.044       116.56121       26.441756       1
       10783.232       120.48113       23.292946       1
       10795.421       115.35717       18.585297       1
       10807.609       118.16971       23.276176       1
       10819.798       122.82049       18.431965       1
       10831.986       129.72093       23.243933       1
       10844.175       117.66756       18.228507       1
       10856.363       113.22880       22.847004       1
       10868.552       134.10192       18.295805       1
       10880.740       122.58724       22.818466       1
       10892.928       112.37298       18.812926       1
       10905.117       137.57196       22.810948       1
       10917.305       113.51274       17.990032       1
       10929.494       117.22108       22.578794       1
       10941.682       123.65271       18.204706       1
       10953.871       123.63127       22.702325       1
       10966.059       118.70908       18.085558       1
       10978.247       133.28190       22.816935       1
       10990.436       109.38045       17.983023       1
       11002.624       139.07257       22.790614       1
       11014.813       111.35525       20.267210       1
       11027.001       118.79465       22.657360       1
       11039.190       110.30862       17.958728       1
       11051.378       141.02832       22.689437       1
       11063.566       119.68586       20.865039       1
       11075.755       136.91983       22.717095       1
       11087.943       118.00873       17.882556       1
       11100.132       122.98231       22.464981       1
       11112.320       128.71675       18.092958       1
       11124.509       112.30079       22.208448       1
       11136.697       134.73342       18.213174       1
       11148.886       139.35589       22.734514       1
       11161.074       136.84680       18.267915       1
       11173.262       117.95264       22.541086       1
       11185.451       123.58481       18.036517       1
       11197.639       150.99478       22.755727       1
       11209.828       133.19801       18.160096       0
       11222.016       135.71647       22.604665       0
       11234.205       136.80352       18.223536       0
       11246.393       129.47026       22.509587       0
       11258.581       126.09472       18.404389       0
       11270.770       107.43138       22.523775       0
       11282.958       119.67851       18.660646       0
       11295.147       135.86644       22.568625       0
       11307.335       121.68309       18.117354       0
       11319.524       125.39445       22.645559       0
       11331.712       101.68283       18.225009       0
       11343.900       99.219266       22.851326       0
       11356.089       105.17886       19.376865       0
       11368.277       107.48399       25.118638       0
       11380.466       100.67704       21.470554       0
       11392.654       103.12953       28.857116       0
       11404.843       75.385948       25.293693       0
       11417.031       93.211006       36.442022       0
       11429.220       61.128633       31.438440       0
       11441.408       101.83524       46.451587       0
       11453.596       51.512796       40.507189       0
       11465.785       86.735253       59.470400       0
       11477.973       78.033998       52.059402       0
       11490.162       178.28637       72.452851       0
       11502.350       95.674363       64.060213       0
       11514.539       13.701693       91.152747       0
       11526.727       77.514958       79.413840       0
       11538.915       68.441275       115.46370       0
       11551.104       72.165780       104.40596       0
       11563.292       133.01704       153.63411       0
       11575.481       40.474509       148.42348       0
       11587.669       119.81122       225.70726       0
       11599.858      -20.771103       226.79317       0
       11612.046      -1350.0061       302.38304       0
       11624.234      -278.55146       343.99793       0
       11636.423       154.86261       523.18340       0
       11648.611       131.03503       510.88900       0
       11660.800       901.70180       769.69368       0
       11672.988      -95.464715       771.58340       0
       11685.177       1139.3205       1257.3761       0
       11697.365       1065.2225       1307.4549       0
       11709.554       1680.1143       2103.8018       0
       11721.742       764.50039       2210.2218       0
       11733.930       2870.4159       3523.1695       0
       11746.119       1506.6677       3238.0242       0
       11758.307      -398.21079       4175.3181       0
       11770.496       3161.5374       3408.4862       0
       11782.684       1931.0705       4081.5686       0
       11794.873       2695.4634       3879.1813       0
       11807.061       1942.7276       3992.0797       0
       11819.249       1901.2723       3319.2960       0
       11831.438       2518.6312       4497.5982       0
       11843.626       6250.7693       4172.9732       0
       11855.815       2697.3218       5483.0209       0
       11868.003       5703.5911       5818.5322       0
       11880.192       10130.538       8571.9506       0
