#WAVELENGTH FLUX ERROR MASK
       10200.545       1308.8815       3036.2361       0
       10223.497       759.98112       2746.3412       0
       10246.449       2689.5996       2312.6414       0
       10269.401       954.71870       2047.3799       0
       10292.353       665.75358       1709.5793       0
       10315.305       1546.0766       1564.0691       0
       10338.257       660.55209       1354.0414       0
       10361.209       867.78241       1262.4843       0
       10384.161       524.47250       1199.2588       0
       10407.113      -760.67371       903.02785       0
       10430.065       1452.4756       932.71661       0
       10453.017       476.08193       823.42974       0
       10475.969       554.89784       682.70067       0
       10498.921       509.67913       596.20931       0
       10521.873       36.274541       484.96867       0
       10544.825       442.68641       432.93747       0
       10567.777       291.38663       364.89930       0
       10590.730      -7.4299218       333.12425       0
       10613.682       79.860929       291.89534       0
       10636.634      -65.237957       235.20063       0
       10659.586       248.66590       237.65415       0
       10682.538       218.54000       214.77639       0
       10705.490       321.50407       181.33121       0
       10728.442       251.55054       155.95865       0
       10751.394       221.69443       126.90716       0
       10774.346       26.808512       107.22635       0
       10797.298       108.57533       88.286882       0
       10820.250       121.93089       78.942706       0
       10843.202       113.02889       67.176070       0
       10866.154       99.578733       61.760802       0
       10889.106       108.78672       54.891977       0
       10912.058       163.79416       53.343178       0
       10935.010       121.59312       47.799867       0
       10957.962       164.55572       46.387352       0
       10980.915       136.86689       41.924349       0
       11003.867       95.136790       40.084192       1
       11026.819       135.82033       36.778202       1
       11049.771       110.55700       35.381269       1
       11072.723       161.60918       32.890775       1
       11095.675       155.37359       32.330101       1
       11118.627       118.54317       29.445659       1
       11141.579       122.15590       29.829783       1
       11164.531       140.05030       28.078395       1
       11187.483       106.37965       28.293015       1
       11210.435       150.65490       27.376465       1
       11233.387       113.53924       27.531890       1
       11256.339       133.19773       26.697372       1
       11279.291       143.04929       27.233180       1
       11302.243       118.29030       26.218186       1
       11325.195       128.34237       26.802970       1
       11348.147       108.52446       25.590640       1
       11371.100       121.73329       26.264992       1
       11394.052       113.74611       25.105272       1
       11417.004       118.12644       25.716124       1
       11439.956       118.62048       24.800296       1
       11462.908       98.363433       27.049695       1
       11485.860       137.37956       24.769689       1
       11508.812       128.29368       25.456031       1
       11531.764       128.41157       24.543411       1
       11554.716       117.06952       25.284904       1
       11577.668       114.77358       24.034416       1
       11600.620       120.65964       24.974679       1
       11623.572       108.42683       23.861035       1
       11646.524       127.26828       24.590734       1
       11669.476       141.23380       23.732859       1
       11692.428       126.45862       24.119504       1
       11715.380       75.433975       19.944629       1
       11738.332       148.57642       23.780547       1
       11761.284       130.14391       22.641892       1
       11784.237       124.12328       22.893928       1
       11807.189       71.043641       19.401468       1
       11830.141       128.61405       22.635657       1
       11853.093       141.15344       21.796425       1
       11876.045       142.57021       22.402941       1
       11898.997       144.65616       21.615005       1
       11921.949       143.26338       22.183040       1
       11944.901       118.21972       21.108282       1
       11967.853       104.97486       21.562572       1
       11990.805       143.00905       21.175199       1
       12013.757       120.84849       21.418538       1
       12036.709       133.13519       20.674728       1
       12059.661       143.60998       21.228001       1
       12082.613       131.94762       20.492183       1
       12105.565       127.66782       20.839027       1
       12128.517       125.26636       20.239640       1
       12151.469       116.17218       20.686398       1
       12174.422       118.44069       19.927800       1
       12197.374       130.32015       20.372017       1
       12220.326       117.40450       19.481691       1
       12243.278       112.49475       19.998887       1
       12266.230       145.84336       19.702958       1
       12289.182       108.87339       19.838846       1
       12312.134       116.78517       19.245375       1
       12335.086       118.06303       19.754908       1
       12358.038       109.45185       19.098051       1
       12380.990       119.34652       19.559068       1
       12403.942       121.74043       18.901717       1
       12426.894       134.00279       19.607716       1
       12449.846       131.97087       18.915265       1
       12472.798       119.76663       19.282954       1
       12495.750       124.23672       18.741430       1
       12518.702       114.69422       19.150279       1
       12541.654       121.61023       18.692362       1
       12564.607       143.44511       19.265293       1
       12587.559       117.91148       18.447027       1
       12610.511       146.95711       19.334625       1
       12633.463       142.28102       18.625585       1
       12656.415       120.28932       18.951531       1
       12679.367       105.34687       17.976864       1
       12702.319       134.84538       18.914801       1
       12725.271       123.12942       18.142962       1
       12748.223       102.22709       18.404227       1
       12771.175       125.79358       17.948680       1
       12794.127       126.84805       18.284365       1
       12817.079       120.28792       17.688467       1
       12840.031       136.07791       18.249666       1
       12862.983       123.93373       17.653288       1
       12885.935       114.80037       18.031263       1
       12908.887       129.40798       17.587767       1
       12931.839       150.50602       18.293211       1
       12954.792       138.00002       17.220991       1
       12977.744       117.59341       17.769160       1
       13000.696       121.73987       17.127870       1
       13023.648       116.94077       17.492136       1
       13046.600       120.90817       16.936267       1
       13069.552       134.90727       17.473906       1
       13092.504       138.52579       16.929611       1
       13115.456       128.35854       17.344396       1
       13138.408       137.49950       16.712576       1
       13161.360       121.30562       17.066682       1
       13184.312       124.35202       16.475650       1
       13207.264       109.80095       16.774158       1
       13230.216       120.62639       16.292803       1
       13253.168       130.14454       16.814447       1
       13276.120       128.65880       16.180534       1
       13299.072       122.72834       16.643014       1
       13322.024       115.15318       15.996498       1
       13344.977       120.97618       16.633034       1
       13367.929       123.48618       16.021519       1
       13390.881       66.134667       14.337226       1
       13413.833       124.60647       15.885019       1
       13436.785       127.77064       16.397990       1
       13459.737       125.83083       15.791116       1
       13482.689       122.65028       16.224829       1
       13505.641       112.67832       15.483747       1
       13528.593       124.63813       16.174087       1
       13551.545       120.67056       15.569822       1
       13574.497       115.92232       16.021477       1
       13597.449       152.53352       15.920782       1
       13620.401       89.766656       14.153142       1
       13643.353       120.28777       15.653385       1
       13666.305       135.91908       16.273078       1
       13689.257       125.17323       15.710904       1
       13712.209       135.72523       16.184250       1
       13735.161       129.40472       15.613876       1
       13758.114       120.64216       16.038537       1
       13781.066       112.99486       15.483046       1
       13804.018       115.45237       15.974656       1
       13826.970       134.63830       15.629489       1
       13849.922       127.81153       16.030435       1
       13872.874       122.14606       15.463010       1
       13895.826       122.72318       15.935832       1
       13918.778       119.90404       15.387003       1
       13941.730       106.67969       15.649629       1
       13964.682       123.30950       15.369044       1
       13987.634       119.22490       15.756673       1
       14010.586       136.02757       15.338915       1
       14033.538       126.80551       15.596506       1
       14056.490       142.24263       15.288059       1
       14079.442       128.44808       15.532382       1
       14102.394       113.68477       14.887286       1
       14125.346       111.86500       15.295167       1
       14148.299       136.27378       14.995038       1
       14171.251       76.482829       13.375990       1
       14194.203       133.45967       14.967694       1
       14217.155       126.38513       15.336817       1
       14240.107       123.39647       14.780231       1
       14263.059       97.010966       14.926818       1
       14286.011       89.570587       12.801007       1
       14308.963       128.50262       15.123133       1
       14331.915       137.66586       14.692454       1
       14354.867       122.40031       14.974362       1
       14377.819       120.55391       14.437108       1
       14400.771       127.35174       14.971134       1
       14423.723       118.34066       14.447556       1
       14446.675       122.23254       14.872752       1
       14469.627       110.40724       14.341189       1
       14492.579       125.28407       4407524.1       1
       14515.531       124.00606       14.481024       1
       14538.484       129.36347       14.980507       1
       14561.436       121.12146       14.464193       1
       14584.388       114.89486       14.832176       1
       14607.340       102.95607       12.794170       1
       14630.292       55.722889       12.668993       1
       14653.244       58.262842       12.511076       1
       14676.196       104.61651       14.763648       1
       14699.148       113.24638       14.402472       1
       14722.100       103.83703       14.710960       1
       14745.052       111.01314       14.425077       1
       14768.004       114.37292       14.753330       1
       14790.956       127.06320       14.557295       1
       14813.908       106.73906       14.778338       1
       14836.860       117.66868       14.414452       1
       14859.812       114.90519       14.810326       1
       14882.764       131.48671       4361249.0       1
       14905.716       124.08762       14.753955       1
       14928.669       113.78860       14.163190       1
       14951.621       134.88819       14.707573       1
       14974.573       129.71534       14.270113       1
       14997.525       113.41933       14.487691       1
       15020.477       107.22897       14.024615       1
       15043.429       114.26895       14.412343       1
       15066.381       115.67118       14.038771       1
       15089.333       106.20049       14.328009       1
       15112.285       68.740473       12.302137       1
       15135.237       116.72799       14.473272       1
       15158.189       113.04275       14.032968       1
       15181.141       125.79225       14.465043       1
       15204.093       106.82927       13.862550       1
       15227.045       105.41509       14.261388       1
       15249.997       110.03661       4236790.5       1
       15272.949       110.50968       14.353329       1
       15295.901       120.33274       14.050486       1
       15318.853       112.64248       14.361347       1
       15341.806       130.47730       14.134126       1
       15364.758       108.65004       14.401117       1
       15387.710       132.50437       14.137092       1
       15410.662       136.27538       14.682863       1
       15433.614       130.38202       13.933484       1
       15456.566       128.62118       14.615078       1
       15479.518       124.93174       14.062991       1
       15502.470       135.12901       14.699861       1
       15525.422       135.13747       14.270192       1
       15548.374       125.92492       14.604314       1
       15571.326       117.37224       14.151240       1
       15594.278       124.34546       14.588044       1
       15617.230       113.63431       14.105654       1
       15640.182       107.51247       14.414917       1
       15663.134       116.52261       14.020803       1
       15686.086       98.125044       14.212053       1
       15709.038       117.18536       13.968714       1
       15731.991       101.89819       14.046481       1
       15754.943       115.74012       13.910046       1
       15777.895       107.87131       14.074832       1
       15800.847       108.70164       13.826001       1
       15823.799       116.57921       14.217146       1
       15846.751       113.29871       13.908395       1
       15869.703       103.57139       14.142614       1
       15892.655       121.26253       13.829963       1
       15915.607       115.67414       14.225854       1
       15938.559       110.75029       14.867926       1
       15961.511       111.52599       14.375678       1
       15984.463       112.93386       14.902438       1
       16007.415       100.04986       14.241745       1
       16030.367       118.48191       14.051241       1
       16053.319       102.76248       14.288599       1
       16076.271       116.00584       4246484.8       1
       16099.223       108.83095       14.380898       1
       16122.176       106.63226       13.947495       1
       16145.128       110.27004       14.426489       1
       16168.080       102.19990       13.989136       1
       16191.032       109.72694       14.554902       1
       16213.984       117.56417       14.262527       1
       16236.936       125.81294       14.723434       1
       16259.888       116.28339       14.278837       1
       16282.840       120.78614       14.738176       1
       16305.792       114.01613       14.284268       1
       16328.744       136.62758       14.886902       1
       16351.696       115.16860       14.259858       1
       16374.648       114.18270       14.663712       1
       16397.600       118.61126       14.216189       1
       16420.552       101.67726       14.483522       1
       16443.504       120.42582       14.314029       1
       16466.456       122.26140       14.841270       1
       16489.408       110.35645       14.356857       1
       16512.361       107.75203       14.859629       1
       16535.313       76.659288       13.172123       1
       16558.265       108.67770       15.923633       1
       16581.217       103.72399       16.202384       1
       16604.169       109.76713       17.726768       1
       16627.121       118.80429       18.446913       1
       16650.073       54.746700       17.388834       1
       16673.025       121.29365       21.671404       1
       16695.977       126.86276       24.722029       1
       16718.929       105.74709       26.653503       1
       16741.881       136.94827       31.323192       1
       16764.833       127.76981       34.172733       0
       16787.785       98.658930       39.582089       0
       16810.737       104.21680       43.962528       0
       16833.689       112.75713       51.142161       0
       16856.641       103.37986       55.495587       0
       16879.593       133.49181       64.437427       0
       16902.546       124.88348       23542687.       0
       16925.498       110.89324       79.478686       0
       16948.450       143.46753       86.468356       0
       16971.402       149.47451       99.165179       0
       16994.354       124.03586       107.79625       0
       17017.306       138.85987       123.24656       0
       17040.258       154.64997       132.07623       0
       17063.210       186.84726       151.85088       0
       17086.162       200.18530       164.78559       0
       17109.114      -25.821716       188.44614       0
       17132.066       321.30825       213.66067       0
       17155.018       173.24108       251.04016       0
       17177.970       304.67584       281.67175       0
       17200.922       183.33421       330.68137       0
       17223.874       303.48728       364.86795       0
       17246.826       209.93873       415.55795       0
       17269.778       583.13807       458.87904       0
       17292.730       431.46654       522.92209       0
       17315.683       458.93622       554.21451       0
       17338.635       250.72433       623.94410       0
