#WAVELENGTH FLUX ERROR MASK
       10213.423       5440.9398       3038.3105       0
       10236.393      -1639.7104       2583.1600       0
       10259.363       1872.5690       2227.4207       0
       10282.333      -64.808746       1921.3616       0
       10305.302       1413.7036       1667.1601       0
       10328.272       932.60046       1476.5301       0
       10351.242       498.45597       1324.8506       0
       10374.212       196.24557       1223.3746       0
       10397.181       1032.7475       1106.5052       0
       10420.151      -424.46860       998.64562       0
       10443.121       1706.6524       893.08641       0
       10466.091      -4.7825530       761.87172       0
       10489.060       1013.8188       639.15757       0
       10512.030       446.04860       544.07296       0
       10535.000       396.17633       456.80925       0
       10557.970       366.87317       403.39046       0
       10580.939       384.14643       347.11551       0
       10603.909       55.577983       314.14868       0
       10626.879       678.30336       282.62815       0
       10649.849       533.57453       257.46781       0
       10672.818       278.21980       220.42181       0
       10695.788       72.188469       194.51757       0
       10718.758       260.54098       163.92074       0
       10741.728      -51.030517       112.24598       0
       10764.697       251.73654       113.49439       0
       10787.667       246.18304       97.507946       0
       10810.637       229.09598       81.204535       0
       10833.607       147.76648       71.771138       0
       10856.576       219.84620       63.311159       0
       10879.546       184.82565       57.595653       0
       10902.516       218.85296       53.165234       0
       10925.486       215.02215       50.076565       0
       10948.455       158.31679       45.732494       0
       10971.425       175.81035       43.507845       0
       10994.395       209.90756       40.672312       0
       11017.365       216.96767       38.524862       1
       11040.334       193.80586       35.276247       1
       11063.304       205.02465       33.975667       1
       11086.274       173.32722       31.451280       1
       11109.243       168.53548       30.508617       1
       11132.213       161.05308       29.032160       1
       11155.183       157.10338       28.746565       1
       11178.153       186.56483       28.008766       1
       11201.122       158.16818       27.457454       1
       11224.092       181.54532       27.192760       1
       11247.062       154.29232       27.102622       1
       11270.032       167.50151       26.510726       1
       11293.001       150.41709       26.295120       1
       11315.971       162.38588       25.952448       1
       11338.941       141.73089       25.561623       1
       11361.911       119.50277       21.235985       1
       11384.880       170.87578       25.781850       1
       11407.850       170.75736       25.059742       1
       11430.820       137.67835       24.878315       1
       11453.790       161.58200       24.694949       1
       11476.759       160.40740       24.826964       1
       11499.729       152.99512       24.202656       1
       11522.699       132.53777       24.454814       1
       11545.669       170.72802       24.308227       1
       11568.638       156.56928       24.428066       1
       11591.608       170.17967       24.113275       1
       11614.578       141.56241       23.978989       1
       11637.548       163.95824       23.697890       1
       11660.517       172.01276       23.882612       1
       11683.487       164.35141       22.968560       1
       11706.457       110.01807       19.019832       1
       11729.427       173.42427       22.593065       1
       11752.396       179.92604       22.976035       1
       11775.366       167.82073       22.158629       1
       11798.336       193.98835       22.654931       1
       11821.306       193.66040       21.993371       1
       11844.275       160.04855       21.684319       1
       11867.245       179.68360       21.548328       1
       11890.215       146.96963       21.430235       1
       11913.185       159.32248       21.098437       1
       11936.154       159.63280       21.404127       1
       11959.124       143.09234       20.576465       1
       11982.094       139.20245       20.709381       1
       12005.064       153.90695       20.445148       1
       12028.033       139.97208       20.294813       1
       12051.003       136.74852       19.933016       1
       12073.973       85.743436       16.475203       1
       12096.943       165.58847       21.916644       1
       12119.912       157.06064       20.247802       1
       12142.882       152.97776       19.602890       1
       12165.852       127.67626       19.752799       1
       12188.822       143.22003       19.383794       1
       12211.791       143.39112       19.493744       1
       12234.761       146.38641       19.230503       1
       12257.731       145.59856       19.459688       1
       12280.700       135.53609       18.961913       1
       12303.670       137.38882       19.142554       1
       12326.640       140.05741       18.689829       1
       12349.610       141.91707       19.046148       1
       12372.579       145.11681       18.641162       1
       12395.549       116.70458       18.538753       1
       12418.519       147.53927       18.481080       1
       12441.489       143.41369       18.623486       1
       12464.458       150.54048       18.395327       1
       12487.428       141.94722       18.647414       1
       12510.398       139.33263       17.862708       1
       12533.368       165.50447       18.717431       1
       12556.337       151.05487       17.831128       1
       12579.307       143.27641       18.257506       1
       12602.277       150.45547       17.806247       1
       12625.247       130.09072       18.113887       1
       12648.216       160.84440       17.714316       1
       12671.186       158.50023       18.429635       1
       12694.156       153.74337       17.566808       1
       12717.126       147.98594       18.078038       1
       12740.095       145.57091       17.079964       1
       12763.065       125.98199       17.616163       1
       12786.035       125.05661       16.716818       1
       12809.005       152.59099       17.713587       1
       12831.974       137.31825       16.783623       1
       12854.944       139.31618       17.399080       1
       12877.914       137.68270       16.670276       1
       12900.884       138.48587       17.372906       1
       12923.853       140.51441       16.537931       1
       12946.823       146.53296       17.206750       1
       12969.793       137.96828       16.345963       1
       12992.763       136.57755       16.794451       1
       13015.732       145.46635       16.058382       1
       13038.702       130.98790       16.637367       1
       13061.672       146.24263       15.988955       1
       13084.642       127.50372       16.503834       1
       13107.611       153.71454       16.025460       1
       13130.581       135.80301       16.444051       1
       13153.551       137.24719       15.740464       1
       13176.521       162.25742       16.496769       1
       13199.490       126.98528       15.400670       1
       13222.460       142.93998       15.737025       1
       13245.430       141.41139       15.269502       1
       13268.400       130.18642       15.831183       1
       13291.369       146.61680       15.461618       1
       13314.339       151.25582       16.100410       1
       13337.309       137.65166       15.236440       1
       13360.278       134.90540       15.818347       1
       13383.248       136.63861       15.218750       1
       13406.218       151.17954       15.859084       1
       13429.188       121.79366       14.919302       1
       13452.157       134.16072       15.485043       1
       13475.127       141.45558       15.025642       1
       13498.097       131.40300       15.440544       1
       13521.067       144.44513       14.864449       1
       13544.036       126.11615       15.357753       1
       13567.006       145.40922       14.693637       1
       13589.976       141.97556       15.483075       1
       13612.946       133.36421       14.508804       1
       13635.915       122.81997       15.260123       1
       13658.885       124.09103       14.537723       1
       13681.855       145.33854       15.443782       1
       13704.825       137.83024       14.786884       1
       13727.794       159.29573       15.581226       1
       13750.764       148.23428       14.898310       1
       13773.734       140.99023       15.459291       1
       13796.704       133.15047       14.765142       1
       13819.673       125.70823       14.968616       1
       13842.643       135.10308       14.696454       1
       13865.613       68.136479       12.244123       1
       13888.583       135.01324       14.700994       1
       13911.552       110.22219       14.947519       1
       13934.522       135.40463       14.689844       1
       13957.492       130.00039       15.111514       1
       13980.462       145.74174       14.628751       1
       14003.431       136.07567       15.104359       1
       14026.401       133.66866       14.442562       1
       14049.371       138.12259       14.777780       1
       14072.341       94.150266       11.832260       1
       14095.310       140.85882       14.880880       1
       14118.280       137.60303       14.214678       1
       14141.250       124.62793       14.541801       1
       14164.220       121.70012       13.983923       1
       14187.189       125.66553       14.594409       1
       14210.159       139.53421       14.113902       1
       14233.129       128.30137       14.601229       1
       14256.099       148.01728       14.079886       1
       14279.068       127.90839       14.230863       1
       14302.038       137.86251       13.939327       1
       14325.008       74.356501       11.528742       1
       14347.978       128.81656       13.758947       1
       14370.947       128.65411       14.323422       1
       14393.917       134.13936       13.786902       1
       14416.887       115.02370       14.160904       1
       14439.856       134.68933       13.798225       1
       14462.826       137.89567       14.410019       1
       14485.796       118.64952       14.792720       1
       14508.766       134.54774       14.353994       1
       14531.735       141.41056       13.823312       1
       14554.705       127.38849       14.214297       1
       14577.675       83.539543       11.212551       1
       14600.645       125.07602       14.150326       1
       14623.614       126.09220       13.658291       1
       14646.584       117.73556       14.181237       1
       14669.554       119.07108       13.298389       1
       14692.524       108.72690       14.108534       1
       14715.493       109.13966       13.541542       1
       14738.463       116.83118       14.198926       1
       14761.433       122.16189       13.647261       1
       14784.403       120.43200       14.238102       1
       14807.372       128.65424       13.719084       1
       14830.342       116.48540       14.193611       1
       14853.312       119.50049       13.657373       1
       14876.282       124.82410       14.088540       1
       14899.251       120.91276       13.523361       1
       14922.221       112.39844       13.941842       1
       14945.191       128.48605       13.496098       1
       14968.161       127.63413       14.031392       1
       14991.130       116.46405       13.316101       1
       15014.100       129.62915       13.982379       1
       15037.070       113.57813       13.241384       1
       15060.040       122.63773       13.943711       1
       15083.009       122.74618       13.353057       1
       15105.979       117.77842       15.095225       1
       15128.949       138.48894       13.734181       1
       15151.919       103.65155       13.632549       1
       15174.888       113.98099       13.444685       1
       15197.858       111.10660       13.676490       1
       15220.828       110.47652       13.414949       1
       15243.798       115.42830       13.679542       1
       15266.767       120.43675       13.469954       1
       15289.737       116.12630       13.731998       1
       15312.707       116.36222       13.413341       1
       15335.677       107.29975       13.570887       1
       15358.646       112.71095       13.412052       1
       15381.616       111.32721       13.680653       1
       15404.586       124.31833       13.526610       1
       15427.556       129.16870       13.838854       1
       15450.525       127.54777       13.619677       1
       15473.495       125.97394       13.793463       1
       15496.465       143.16076       13.686817       1
       15519.434       131.61717       13.890156       1
       15542.404       128.82349       13.640088       1
       15565.374       115.84805       13.788620       1
       15588.344       116.18547       13.497164       1
       15611.313       113.89744       13.671886       1
       15634.283       116.72526       13.474412       1
       15657.253       104.47343       13.549796       1
       15680.223       93.499728       13.219260       1
       15703.192       108.06556       13.498422       1
       15726.162       113.58232       13.286501       1
       15749.132       109.74652       13.557209       1
       15772.102       95.944951       13.104996       1
       15795.071       112.74092       13.497768       1
       15818.041       121.25063       13.257607       1
       15841.011       118.91903       13.589943       1
       15863.981       112.99382       13.209369       1
       15886.950       109.29905       13.488186       1
       15909.920       120.93855       13.385330       1
       15932.890       121.78551       13.606297       1
       15955.860       118.92070       4898895.7       1
       15978.829       117.69801       13.634786       1
       16001.799       105.53331       13.261875       1
       16024.769       112.35623       13.587799       1
       16047.739       121.79759       13.338799       1
       16070.708       113.97472       13.649754       1
       16093.678       105.78643       13.219660       1
       16116.648       104.54545       13.404875       1
       16139.618       111.55636       13.359685       1
       16162.587       111.60083       13.722264       1
       16185.557       115.38052       13.516130       1
       16208.527       113.33730       13.768168       1
       16231.497       97.691782       13.402975       1
       16254.466       127.23168       14.015164       1
       16277.436       112.16151       13.560747       1
       16300.406       119.80230       14.058573       1
       16323.376       102.65433       13.568779       1
       16346.345       112.94658       13.996385       1
       16369.315       110.37812       13.755584       1
       16392.285       131.78946       14.209145       1
       16415.255       115.33721       13.866555       1
       16438.224       118.14285       14.141701       1
       16461.194       126.36101       14.025375       1
       16484.164       109.72529       14.265893       1
       16507.134       114.09557       14.232789       1
       16530.103       113.92034       14.852301       1
       16553.073       100.72098       14.775581       1
       16576.043       106.78439       15.726312       1
       16599.012       92.259307       15.996093       1
       16621.982       108.96995       17.536918       1
       16644.952       97.521311       18.244559       1
       16667.922       118.26077       20.462276       1
       16690.891       123.57766       21.956731       1
       16713.861       116.12936       24.858460       1
       16736.831       91.909724       26.839853       1
       16759.801       91.986395       31.059482       0
       16782.770       44.821426       27.908440       0
       16805.740       96.533414       40.155113       0
       16828.710       107.76876       44.764839       0
       16851.680       94.371538       51.431544       0
       16874.649       104.21833       56.285268       0
       16897.619       38.298592       63.556902       0
       16920.589       11.653168       69.374995       0
       16943.559       34.038666       79.274827       0
       16966.528       57.509555       86.861690       0
       16989.498       69.103462       99.237381       0
       17012.468       69.854766       107.75984       0
       17035.438       104.94171       122.21573       0
       17058.407       103.04290       133.76249       0
       17081.377       22.318530       150.02172       0
       17104.347      -42.392318       163.72787       0
       17127.317      -81.338636       188.54599       0
       17150.286       55.768830       213.58459       0
       17173.256       324.10367       254.73029       0
       17196.226       129.40448       283.43575       0
       17219.196       275.27824       363.44922       0
       17242.165       321.39576       366.52922       0
       17265.135      -131.52254       414.23968       0
       17288.105       288.91741       455.94467       0
       17311.075       430.17592       514.31423       0
       17334.044      -241.21423       550.79395       0
       17357.014      -117.35812       622.92392       0
