#WAVELENGTH FLUX ERROR MASK
       7498.9361       3905.8852       19002.878       0
       7511.2555       7112.8357       12983.663       0
       7523.5749       8529.7960       13604.321       0
       7535.8943       1742.0887       9276.5276       0
       7548.2136       4398.4565       9221.2625       0
       7560.5330       682.91226       5854.4715       0
       7572.8524      -1337.8006       5688.3454       0
       7585.1718       86.313662       3679.8165       0
       7597.4911      -130.36349       3752.0832       0
       7609.8105       675.82230       2535.4810       0
       7622.1299      -62.088717       2682.5853       0
       7634.4493       583.48874       1858.1001       0
       7646.7686       1488.0635       1999.1305       0
       7659.0880      -801.64133       1620.4967       0
       7671.4074       583.23378       1419.1998       0
       7683.7268       1243.2582       953.79038       0
       7696.0461       459.06093       984.35222       0
       7708.3655       136.83614       672.54965       0
       7720.6849       218.68101       722.90051       0
       7733.0043       218.77412       516.17969       0
       7745.3236       8.4704365       577.91825       0
       7757.6430       283.29157       427.36525       0
       7769.9624       289.72237       493.00924       0
       7782.2818       212.90442       366.31945       0
       7794.6011       321.47777       413.76679       0
       7806.9205       173.64754       300.97075       0
       7819.2399       55.988003       284.63943       0
       7831.5593       143.83098       241.77077       0
       7843.8786       212.36756       270.83751       0
       7856.1980       149.88096       196.49714       0
       7868.5174       285.31076       223.00187       0
       7880.8368       258.25180       164.77149       0
       7893.1561       321.78537       191.49827       0
       7905.4755       93.938154       142.13900       0
       7917.7949       132.57056       167.41728       0
       7930.1143       187.63094       127.67096       0
       7942.4336       119.68221       150.84060       0
       7954.7530       59.741280       115.79234       0
       7967.0724       296.71010       140.56108       0
       7979.3918       208.83032       107.50977       0
       7991.7111       78.207170       127.59858       0
       8004.0305       138.71841       98.288709       0
       8016.3499       284.94025       119.72721       0
       8028.6693       170.82781       113.04130       0
       8040.9886       66.081100       111.96082       0
       8053.3080       171.92253       88.753177       0
       8065.6274       186.48565       109.04718       0
       8077.9468       123.31021       85.370530       0
       8090.2661       52.405587       105.08083       0
       8102.5855       155.17261       100.34314       0
       8114.9049       127.38050       100.92944       0
       8127.2243       139.58978       79.837689       0
       8139.5436       176.14783       97.970081       0
       8151.8630       127.41923       76.663171       1
       8164.1824       37.028821       93.520864       1
       8176.5018       110.42077       77.259993       1
       8188.8211       97.906931       90.483646       1
       8201.1405       142.69316       71.364348       1
       8213.4599       65.602852       86.744548       1
       8225.7793       91.083165       68.332160       1
       8238.0986       134.06783       84.973352       1
       8250.4180       117.95505       66.711167       1
       8262.7374       86.191873       80.100711       1
       8275.0567       84.507562       72.733825       1
       8287.3761       99.007486       76.563191       1
       8299.6955       79.470002       60.068935       1
       8312.0149       51.826861       73.004211       1
       8324.3342       111.58657       58.063137       1
       8336.6536       78.380955       70.399974       1
       8348.9730       83.194267       56.071021       1
       8361.2924       87.844006       68.671637       1
       8373.6117       92.532951       54.701916       1
       8385.9311       126.56014       67.193864       1
       8398.2505       123.39057       53.974057       1
       8410.5699       113.48909       65.426923       1
       8422.8892       112.95456       52.686867       1
       8435.2086       116.61140       64.405929       1
       8447.5280       114.36393       50.321842       1
       8459.8474       82.882624       62.017227       1
       8472.1667       98.579305       48.758120       1
       8484.4861       105.52076       52.441596       1
       8496.8055       93.972907       46.607361       1
       8509.1249       83.477437       57.080132       1
       8521.4442       123.41273       45.683775       1
       8533.7636       99.255745       56.441920       1
       8546.0830       112.95197       45.032731       1
       8558.4024       107.65210       55.383038       1
       8570.7217       89.773357       44.337902       1
       8583.0411       120.01065       54.670929       1
       8595.3605       68.802376       43.799319       1
       8607.6799       116.10588       54.322930       1
       8619.9992       78.998297       43.695085       1
       8632.3186       59.187103       53.309800       1
       8644.6380       95.734195       43.323381       1
       8656.9574       116.51669       53.474296       1
       8669.2767       50.882387       42.424301       1
       8681.5961       124.77241       52.228369       1
       8693.9155       58.376588       41.250237       1
       8706.2349       79.762157       50.392429       1
       8718.5542       79.616173       39.917715       1
       8730.8736       59.610623       48.417336       1
       8743.1930       103.76039       38.660667       1
       8755.5124       117.01014       47.213861       1
       8767.8317       109.27087       39.561862       1
       8780.1511       80.646822       47.115301       1
       8792.4705       92.388009       36.686557       1
       8804.7899       94.359582       45.254626       1
       8817.1092       71.920744       43.172424       1
       8829.4286       70.182596       44.032659       1
       8841.7480       90.936397       35.377020       1
       8854.0674       59.331175       42.947001       1
       8866.3867       75.970083       34.512790       1
       8878.7061       78.200871       42.370191       1
       8891.0255       101.92297       33.927602       1
       8903.3449       90.760299       41.633786       1
       8915.6642       53.702861       33.049962       1
       8927.9836       102.32031       41.102114       1
       8940.3030       90.737380       33.034547       1
       8952.6224       94.013076       40.472433       1
       8964.9417       99.815933       32.504026       1
       8977.2611       109.00256       40.186780       1
       8989.5805       119.90117       32.228074       1
       9001.8999       89.947997       39.342653       1
       9014.2192       83.903820       32.024054       1
       9026.5386       102.67782       39.048684       1
       9038.8580       100.09413       31.253349       1
       9051.1774       100.77344       38.617890       1
       9063.4967       86.793288       31.043478       1
       9075.8161       110.09018       38.627035       1
       9088.1355       103.12376       30.792631       1
       9100.4549       114.16492       37.838368       1
       9112.7742       83.404117       30.138638       1
       9125.0936       110.46298       37.068952       1
       9137.4130       102.75019       29.669391       1
       9149.7324       89.704188       37.008916       1
       9162.0517       89.736126       29.044730       1
       9174.3711       76.903377       36.134550       1
       9186.6905       76.802655       28.380389       1
       9199.0099       93.982991       34.913402       1
       9211.3292       108.56237       28.034548       1
       9223.6486       79.698544       33.207048       1
       9235.9680       90.181746       26.508228       1
       9248.2874       83.866459       32.798718       1
       9260.6067       101.20534       26.227382       1
       9272.9261       78.031361       32.085244       1
       9285.2455       94.800614       25.991373       1
       9297.5649       82.045442       32.819333       1
       9309.8842       99.431571       25.664527       1
       9322.2036       79.734034       32.452601       1
       9334.5230       88.449001       25.346134       1
       9346.8424       99.354809       31.403569       1
       9359.1617       79.701210       24.988398       1
       9371.4811       82.970763       30.955597       1
       9383.8005       67.570441       24.708766       1
       9396.1198       69.612759       30.645755       1
       9408.4392       107.64069       24.644620       1
       9420.7586       83.778988       30.281953       1
       9433.0780       87.842550       24.476767       1
       9445.3973       96.989534       29.868920       1
       9457.7167       83.023229       23.858127       1
       9470.0361       69.411041       29.632178       1
       9482.3555       78.412011       23.766371       1
       9494.6748       114.30084       29.702778       1
       9506.9942       100.84861       23.749370       1
       9519.3136       106.57170       29.352868       1
       9531.6330       84.076864       23.408953       1
       9543.9523       107.69506       28.971504       1
       9556.2717       89.961473       23.188185       1
       9568.5911       86.403538       29.365754       1
       9580.9105       69.731960       24.142703       1
       9593.2298       81.693168       28.246742       1
       9605.5492       79.950498       22.639332       1
       9617.8686       64.172825       27.838296       1
       9630.1880       91.271558       22.454637       1
       9642.5073       86.290731       27.641337       1
       9654.8267       82.702829       22.118569       1
       9667.1461       83.356744       27.434580       1
       9679.4655       105.15962       22.684868       1
       9691.7848       111.93679       27.271752       1
       9704.1042       105.11693       22.027074       1
       9716.4236       90.231989       27.060160       1
       9728.7430       113.80722       21.899033       1
       9741.0623       77.764581       26.796780       1
       9753.3817       79.561213       21.446779       1
       9765.7011       91.631241       26.419849       1
       9778.0205       97.749204       21.212146       1
       9790.3398       96.090097       26.296846       1
       9802.6592       91.490653       21.051940       1
       9814.9786       71.658199       25.834833       1
       9827.2980       92.623729       20.978343       1
       9839.6173       75.011597       25.635849       1
       9851.9367       97.795376       20.823759       1
       9864.2561       83.143256       25.703479       1
       9876.5755       80.001924       20.628588       1
       9888.8948       70.874255       25.376559       1
       9901.2142       73.177141       20.459334       1
       9913.5336       81.033993       25.574656       1
       9925.8530       88.198596       20.534832       1
       9938.1723       107.28277       25.648136       1
       9950.4917       96.389410       21.515538       1
       9962.8111       93.407647       25.185933       1
       9975.1305       83.456132       19.945395       1
       9987.4498       90.775001       24.967643       1
       9999.7692       88.948621       19.823264       1
       10012.089       86.745079       24.454734       1
       10024.408       97.566303       19.519459       1
       10036.727       100.50740       24.223954       1
       10049.047       99.857154       19.380315       1
       10061.366       91.943401       23.734776       1
       10073.685       94.267003       19.211597       1
       10086.005       102.87741       23.916689       1
       10098.324       98.519360       19.849952       1
       10110.644       90.955891       23.887146       1
       10122.963       113.05308       19.237427       1
       10135.282       92.845125       23.816427       1
       10147.602       97.607796       22.183205       1
       10159.921       126.05635       23.894416       1
       10172.240       102.90799       18.975693       1
       10184.560       106.79073       23.589080       1
       10196.879       100.20452       18.854183       1
       10209.199       80.164951       23.717194       1
       10221.518       82.501155       19.098554       1
       10233.837       102.67593       23.783420       1
       10246.157       93.473204       19.084690       1
       10258.476       97.147423       23.541051       1
       10270.795       87.170894       18.818767       1
       10283.115       107.10938       23.418958       1
       10295.434       99.385047       18.696594       1
       10307.754       75.052115       22.927104       1
       10320.073       98.522250       18.570321       1
       10332.392       111.49120       22.824730       1
       10344.712       101.71628       18.354876       1
       10357.031       91.095327       22.566383       1
       10369.350       81.495207       18.083368       1
       10381.670       92.568516       22.472483       1
       10393.989       88.433436       18.062537       1
       10406.309       106.74025       22.505907       1
       10418.628       82.916522       17.977829       1
       10430.947       102.62534       22.478981       1
       10443.267       82.175160       17.929689       1
       10455.586       98.698916       22.028792       1
       10467.905       86.211079       17.685328       1
       10480.225       75.133363       21.759235       1
       10492.544       118.72176       17.690129       1
       10504.864       53.189729       18.525029       1
       10517.183       90.421343       17.513764       1
       10529.502       83.534501       22.652741       1
       10541.822       73.274691       17.390846       1
       10554.141       79.210141       21.695501       1
       10566.460       93.782273       17.559772       1
       10578.780       100.71684       21.885357       1
       10591.099       92.486096       17.549980       1
       10603.419       89.702436       21.815349       1
       10615.738       77.342073       18.324159       1
       10628.057       73.238395       21.583601       1
       10640.377       93.959171       17.469447       1
       10652.696       88.493873       21.696189       1
       10665.015       81.916395       17.154850       1
       10677.335       75.042358       21.265691       1
       10689.654       99.574133       17.177645       1
       10701.974       79.403262       21.184907       1
       10714.293       95.056281       17.010717       1
       10726.612       86.185978       21.001096       1
       10738.932       89.918606       16.861913       1
       10751.251       74.790122       20.873136       1
       10763.570       87.452716       16.849796       1
       10775.890       88.524598       21.011748       1
       10788.209       95.956469       16.895068       1
       10800.529       87.687506       20.963273       1
       10812.848       105.66402       16.921575       1
       10825.167       79.610835       20.824648       1
       10837.487       85.505353       16.811666       1
       10849.806       94.513634       20.944670       1
       10862.125       88.852631       16.681029       1
       10874.445       100.80853       20.899418       1
       10886.764       75.966520       16.635054       1
       10899.084       101.99547       20.835549       1
       10911.403       88.009413       16.604213       1
       10923.722       90.691982       20.643402       1
       10936.042       98.095155       16.585157       1
       10948.361       117.10678       21.009701       1
       10960.680       97.393100       16.706714       1
       10973.000       88.473526       20.675740       1
       10985.319       118.51274       16.887449       1
       10997.639       82.312721       20.543172       1
       11009.958       116.99167       16.912026       1
       11022.277       101.21195       20.855860       1
       11034.597       96.152954       16.754030       1
       11046.916       101.52225       20.843547       1
       11059.235       94.973301       16.745097       1
       11071.555       79.128321       20.688826       1
       11083.874       107.06016       16.927472       1
       11096.194       101.73776       20.904434       1
       11108.513       86.150785       16.864974       1
       11120.832       99.690856       20.716096       1
       11133.152       93.358663       17.427965       1
       11145.471       98.657891       20.731734       1
       11157.790       105.01442       17.122102       1
       11170.110       78.169837       18.829397       1
       11182.429       88.696858       16.634806       1
       11194.749       89.814225       20.250375       1
       11207.068       85.367703       16.213519       0
       11219.387       72.083253       20.077758       0
       11231.707       126.45509       16.501293       0
       11244.026       90.358659       20.302004       0
       11256.345       98.680259       16.345115       0
       11268.665       91.408093       20.280400       0
       11280.984       81.569711       16.172916       0
       11293.304       97.302077       20.328754       0
       11305.623       99.331953       16.240376       0
       11317.942       86.284124       20.234888       0
       11330.262       81.382748       16.171292       0
       11342.581       81.309539       20.202478       0
       11354.900       74.632035       16.097029       0
       11367.220       94.391146       20.348832       0
       11379.539       88.135276       16.210023       0
       11391.859       72.582965       18.313851       0
       11404.178       92.230409       16.417872       0
       11416.497       50.655011       17.966472       0
       11428.817       81.274978       17.263222       0
       11441.136       80.111832       22.047429       0
       11453.455       78.307962       19.694650       0
       11465.775       89.258428       24.790721       0
       11478.094       94.805763       21.553120       0
       11490.414       65.616246       29.032129       0
       11502.733       70.497956       30.925402       0
       11515.052       73.524816       36.108186       0
       11527.372       77.284815       32.769370       0
       11539.691       54.352277       45.893530       0
       11552.010       101.03801       41.991910       0
       11564.330       60.414745       58.241492       0
       11576.649       58.403855       55.575097       0
       11588.969       41.480860       73.959018       0
       11601.288       83.141542       67.858519       0
       11613.607       89.740498       87.236261       0
       11625.927       109.69706       79.483007       0
       11638.246       84.666643       112.19545       0
       11650.565       25.076949       105.77429       0
       11662.885       120.71657       157.15139       0
       11675.204       24.973094       153.57066       0
       11687.524       131.50249       235.54560       0
       11699.843       336.13942       235.33286       0
       11712.162      -90.797798       370.33297       0
       11724.482       57.356943       347.67710       0
       11736.801      -120.23081       543.52651       0
       11749.120       110.92930       501.08014       0
       11761.440       198.55095       669.92239       0
       11773.759      -231.11948       771.14879       0
       11786.079      -884.79947       1227.4104       0
       11798.398       189.56418       1278.2722       0
       11810.717       568.15282       2065.7123       0
       11823.037      -1266.9444       2152.7568       0
       11835.356       2233.5229       3385.1023       0
       11847.675       333.14769       3065.7178       0
       11859.995      -2883.7275       3950.4428       0
       11872.314       3272.2032       3238.8939       0
       11884.634      -1391.4583       3856.9343       0
       11896.953       295.77476       3042.8114       0
       11909.272       2777.2137       3765.3287       0
       11921.592       915.34890       3131.7694       0
