#WAVELENGTH FLUX ERROR MASK
       7477.3830      -9786.7274       21964.634       0
       7489.2536      -10054.474       20922.453       0
       7501.1243       13638.781       18195.758       0
       7512.9950      -18064.879       15940.609       0
       7524.8657      -2876.4701       16152.193       0
       7536.7363       7606.8238       10880.898       0
       7548.6070       34.295974       11140.622       0
       7560.4777       4782.3904       7024.1422       0
       7572.3483       3012.9915       7041.7852       0
       7584.2190       247.77200       4495.3902       0
       7596.0897      -3964.3562       4630.9750       0
       7607.9604       1549.7631       3130.5812       0
       7619.8310       2398.9347       3376.9574       0
       7631.7017      -1109.6496       2854.8021       0
       7643.5724       388.43160       2516.5815       0
       7655.4431       1389.9903       1734.1531       0
       7667.3137       377.07378       1843.6130       0
       7679.1844       76.491453       1540.9796       0
       7691.0551       934.47414       1292.7819       0
       7702.9257      -147.75639       1088.5031       0
       7714.7964       777.79159       947.91722       0
       7726.6671      -389.62740       649.09271       0
       7738.5378       244.21231       750.29091       0
       7750.4084      -135.48314       581.56471       0
       7762.2791       72.253942       630.26594       0
       7774.1498       397.30617       457.94746       0
       7786.0205       405.93721       539.83311       0
       7797.8911       43.587413       518.16715       0
       7809.7618      -369.51303       441.66595       0
       7821.6325       415.90732       318.62469       0
       7833.5032       186.14936       361.28506       0
       7845.3738      -67.206908       255.76334       0
       7857.2445       265.39782       295.68299       0
       7869.1152       11.766422       213.06232       0
       7880.9858       59.577125       247.49833       0
       7892.8565       209.85322       245.20139       0
       7904.7272       103.16912       217.54663       0
       7916.5979       103.53337       162.87507       0
       7928.4685       69.887812       195.66606       0
       7940.3392       127.09764       147.45548       0
       7952.2099       181.30010       178.31152       0
       7964.0806       172.01336       134.64428       0
       7975.9512       81.077140       163.00598       0
       7987.8219       216.93644       126.32776       0
       7999.6926       40.083862       151.39870       0
       8011.5633       113.87520       118.06553       0
       8023.4339       50.003781       142.81882       0
       8035.3046       158.68900       111.70992       0
       8047.1753       154.91360       137.56843       0
       8059.0459       147.61946       107.51272       0
       8070.9166       86.314978       132.82372       0
       8082.7873       162.76645       106.75996       0
       8094.6580       99.702595       128.20228       0
       8106.5286       261.43675       98.295743       0
       8118.3993       130.04130       119.61647       0
       8130.2700       106.90165       94.387489       0
       8142.1407       23.248961       115.29793       0
       8154.0113       98.025834       91.140856       1
       8165.8820       237.11239       112.48418       1
       8177.7527       131.59608       88.354085       1
       8189.6233       99.257621       107.38103       1
       8201.4940       110.99756       84.447077       1
       8213.3647       37.608899       103.06697       1
       8225.2354       156.71604       81.625047       1
       8237.1060       119.50871       98.983175       1
       8248.9767       114.30222       83.465981       1
       8260.8474       145.51516       94.461670       1
       8272.7181       114.56145       73.617073       1
       8284.5887       137.61858       90.011346       1
       8296.4594       76.875840       70.153641       1
       8308.3301       141.26308       86.058299       1
       8320.2008       162.85288       68.106157       1
       8332.0714       116.73910       83.007652       1
       8343.9421       162.90265       65.870794       1
       8355.8128       69.855570       79.501627       1
       8367.6834       118.82858       63.949869       1
       8379.5541       142.08328       78.875000       1
       8391.4248       33.278586       81.025406       1
       8403.2955       145.70835       77.006694       1
       8415.1661       64.764844       60.422549       1
       8427.0368       42.158656       61.434907       1
       8438.9075       129.15360       59.240094       1
       8450.7782       100.66235       71.668394       1
       8462.6488       168.31010       89.886065       1
       8474.5195       108.81853       70.044575       1
       8486.3902       152.11009       55.688678       1
       8498.2608       124.57656       68.491638       1
       8510.1315       99.591608       54.110031       1
       8522.0022       181.00507       65.155757       1
       8533.8729       75.902425       54.104240       1
       8545.7435       126.97633       64.963367       1
       8557.6142       119.94939       52.592392       1
       8569.4849       96.212868       65.072525       1
       8581.3556       121.46168       52.176744       1
       8593.2262       115.09877       64.740758       1
       8605.0969       107.40543       55.814990       1
       8616.9676       150.12029       29291938.       1
       8628.8383       118.86995       51.533472       1
       8640.7089       107.60395       63.138173       1
       8652.5796       167.68393       65.446165       1
       8664.4503       73.217905       51.981685       1
       8676.3209       148.71106       49.795943       1
       8688.1916       142.62289       60.790463       1
       8700.0623       140.39718       48.342545       1
       8711.9330       145.75590       59.143433       1
       8723.8036       165.83477       46.620878       1
       8735.6743       158.35966       57.160558       1
       8747.5450       138.60922       45.134670       1
       8759.4157       115.99916       55.483477       1
       8771.2863       175.15308       44.389610       1
       8783.1570       65.699752       44.919747       1
       8795.0277       147.90845       43.490556       1
       8806.8983       151.48758       53.436536       1
       8818.7690       142.57561       42.528308       1
       8830.6397       125.44861       52.529480       1
       8842.5104       155.70072       41.822932       1
       8854.3810       98.344776       50.747717       1
       8866.2517       155.61400       40.974270       1
       8878.1224       146.27294       50.080997       1
       8889.9931       166.72994       40.479478       1
       8901.8637       122.27224       49.447029       1
       8913.7344       158.35233       39.678962       1
       8925.6051       136.05170       49.042973       1
       8937.4758       151.83161       39.105054       1
       8949.3464       136.04772       48.081040       1
       8961.2171       142.92865       38.114556       1
       8973.0878       121.59860       46.898975       1
       8984.9584       147.62113       37.527394       1
       8996.8291       171.33332       46.508368       1
       9008.6998       158.44207       37.288557       1
       9020.5705       93.209170       45.457149       1
       9032.4411       166.71844       37.097834       1
       9044.3118       146.86561       45.893735       1
       9056.1825       160.17535       36.722001       1
       9068.0532       169.87818       45.611432       1
       9079.9238       187.45116       36.491007       1
       9091.7945       135.62948       44.743590       1
       9103.6652       158.12211       35.475308       1
       9115.5358       127.83006       45.059084       1
       9127.4065       149.97609       35.672234       1
       9139.2772       130.60064       44.389958       1
       9151.1479       109.92613       37.294647       1
       9163.0185       147.16942       43.524923       1
       9174.8892       142.94234       34.328340       1
       9186.7599       88.393292       34.436236       1
       9198.6306       151.12654       33.657101       1
       9210.5012       206.00608       42.390433       1
       9222.3719       116.60232       32.955033       1
       9234.2426       174.31277       47.240137       1
       9246.1133       155.59963       32.906728       1
       9257.9839       165.24662       41.177691       1
       9269.8546       113.53207       32.202881       1
       9281.7253       107.67010       40.231700       1
       9293.5959       155.75161       34.718226       1
       9305.4666       135.05003       40.194453       1
       9317.3373       137.93967       31.762876       1
       9329.2080       100.76246       39.337384       1
       9341.0786       91.396277       31.261788       1
       9352.9493       127.41129       38.985054       1
       9364.8200       129.37286       33.346615       1
       9376.6907       134.45704       39.199042       1
       9388.5613       101.73518       30.616167       1
       9400.4320       211.93607       39.194062       1
       9412.3027       121.08942       30.312106       1
       9424.1733       137.28139       38.135594       1
       9436.0440       128.77978       29.873439       1
       9447.9147       121.82384       37.450623       1
       9459.7854       137.75953       29.757122       1
       9471.6560       155.36613       37.470932       1
       9483.5267       120.19262       29.222442       1
       9495.3974       152.60582       37.002912       1
       9507.2681       130.33236       29.100157       1
       9519.1387       175.78767       36.782831       1
       9531.0094       123.85866       30.907637       1
       9542.8801       85.807110       35.701092       1
       9554.7508       152.21113       28.547482       1
       9566.6214       130.46525       35.730777       1
       9578.4921       122.50721       35.444893       1
       9590.3628       134.97534       35.325486       1
       9602.2334       110.63751       27.849718       1
       9614.1041       92.331415       34.012759       1
       9625.9748       150.16092       27.825503       1
       9637.8455       125.42379       34.649439       1
       9649.7161       145.89345       27.741883       1
       9661.5868       126.33401       34.203746       1
       9673.4575       142.30927       27.313384       1
       9685.3282       133.48032       34.289898       1
       9697.1988       125.32623       27.217096       1
       9709.0695       140.45281       33.899232       1
       9720.9402       140.89420       27.102560       1
       9732.8108       152.02230       33.867054       1
       9744.6815       135.11026       26.759761       1
       9756.5522       117.27606       33.241686       1
       9768.4229       131.78045       26.602798       1
       9780.2935       112.00382       32.835704       1
       9792.1642       119.33303       26.385520       1
       9804.0349       113.62011       32.885295       1
       9815.9056       137.81627       26.362658       1
       9827.7762       139.62086       32.801809       1
       9839.6469       134.42681       26.255985       1
       9851.5176       84.874340       14020564.       1
       9863.3883       133.10832       26.150487       1
       9875.2589       96.470206       32.004404       1
       9887.1296       122.14812       28.001176       1
       9899.0003       73.914817       25.600907       1
       9910.8709       148.68675       26.060512       1
       9922.7416       94.392849       25.912606       1
       9934.6123       131.21964       25.810688       1
       9946.4830       132.59418       31.718874       1
       9958.3536       149.81100       25.624015       1
       9970.2243       116.74385       30.670150       1
       9982.0950       134.64178       25.105535       1
       9993.9657       128.38358       30.913457       1
       10005.836       147.07511       24.984385       1
       10017.707       112.58815       26.288863       1
       10029.578       145.82402       24.786994       1
       10041.448       141.56503       30.273478       1
       10053.319       168.90567       26.535280       1
       10065.190       142.59208       30.641224       1
       10077.060       136.23135       24.612719       1
       10088.931       119.37761       30.279296       1
       10100.802       162.45498       24.793640       1
       10112.672       148.50752       29.576025       1
       10124.543       134.09403       23.754036       1
       10136.414       134.88562       29.044093       1
       10148.284       139.98066       23.576916       1
       10160.155       151.00159       29.042285       1
       10172.026       116.99395       25.585108       1
       10183.896       133.44886       28.805685       1
       10195.767       124.05006       25.522315       1
       10207.638       116.10381       28.024988       1
       10219.508       117.92105       23.019704       1
       10231.379       126.40127       28.306271       1
       10243.250       106.84675       22.689007       1
       10255.120       154.02910       28.291641       1
       10266.991       130.96751       24.637627       1
       10278.862       148.67515       27.984378       1
       10290.732       157.71792       26.118609       1
       10302.603       133.55664       27.550391       1
       10314.474       122.49554       31.170226       1
       10326.345       110.37833       27.132205       1
       10338.215       106.59549       29.427665       1
       10350.086       114.37788       26.951439       1
       10361.957       127.39129       21.968891       1
       10373.827       107.50568       26.976697       1
       10385.698       121.69483       22.083159       1
       10397.569       136.40767       27.094197       1
       10409.439       128.22422       28.061558       1
       10421.310       106.24167       26.842459       1
       10433.181       123.34360       21.624924       1
       10445.051       152.40185       27.062958       1
       10456.922       141.04578       21.734796       1
       10468.793       114.58007       26.580183       1
       10480.663       132.22696       21.621674       1
       10492.534       116.20648       26.485223       1
       10504.405       131.63344       23.334031       1
       10516.275       151.41460       27.051887       1
       10528.146       106.90473       21.493019       1
       10540.017       123.78306       26.859909       1
       10551.887       104.48631       21.385003       1
       10563.758       140.49685       26.939994       1
       10575.629       126.30284       21.524676       1
       10587.499       141.44954       26.827636       1
       10599.370       132.13635       21.424161       1
       10611.241       89.254218       26.131627       1
       10623.111       137.00877       21.206028       1
       10634.982       145.97753       26.279355       1
       10646.853       113.50050       20.858412       1
       10658.723       147.65876       26.164324       1
       10670.594       132.16031       20.772193       1
       10682.465       126.93560       25.944160       1
       10694.335       123.37635       20.781211       1
       10706.206       136.11448       25.693600       1
       10718.077       121.57023       20.691622       1
       10729.947       128.62803       25.477312       1
       10741.818       138.76343       20.864522       1
       10753.689       142.09026       25.902326       1
       10765.559       143.92277       20.740319       1
       10777.430       108.86548       25.509334       1
       10789.301       141.41888       20.637583       1
       10801.171       138.76158       25.656955       1
       10813.042       112.86026       20.354209       1
       10824.913       143.16753       25.676271       1
       10836.783       124.20112       20.481401       1
       10848.654       115.31654       25.295707       1
       10860.525       124.21593       20.337595       1
       10872.395       123.06777       24.890310       1
       10884.266       134.44792       20.289968       1
       10896.137       145.34838       25.154456       1
       10908.007       139.15253       20.358870       1
       10919.878       169.57527       25.478014       1
       10931.749       146.43177       20.316017       1
       10943.620       120.87988       25.193702       1
       10955.490       134.04856       19.994438       1
       10967.361       127.64094       25.267915       1
       10979.232       149.79379       20.377009       1
       10991.102       147.09850       25.338911       1
       11002.973       135.59276       20.258006       1
       11014.844       137.05214       25.120179       1
       11026.714       153.86693       20.354040       1
       11038.585       150.56678       25.087347       1
       11050.456       148.57478       20.212318       1
       11062.326       120.14356       24.866974       1
       11074.197       152.06299       20.317211       1
       11086.068       131.71307       25.030672       1
       11097.938       159.87995       20.289698       1
       11109.809       150.48649       25.297095       1
       11121.680       135.27015       20.422246       1
       11133.550       149.50162       26.067296       1
       11145.421       114.61063       20.496911       1
       11157.292       123.31385       25.916892       1
       11169.162       98.368448       20.334752       1
       11181.033       146.44623       26.114117       1
       11192.904       135.17771       20.219377       1
       11204.774       136.56760       25.878676       0
       11216.645       109.81374       20.365512       0
       11228.516       128.47840       25.748766       0
       11240.386       136.00863       20.631579       0
       11252.257       86.666742       25.503994       0
       11264.128       145.75605       20.698236       0
       11275.998       115.69006       25.638123       0
       11287.869       122.46802       20.496058       0
       11299.740       137.68331       26.099200       0
       11311.610       95.183862       20.635188       0
       11323.481       102.56409       26.410614       0
       11335.352       110.13126       21.688666       0
       11347.222       113.56227       28.582389       0
       11359.093       114.81094       24.044516       0
       11370.964       140.41925       39.970928       0
       11382.834       111.10470       30.473808       0
       11394.705       168.16636       48.293973       0
       11406.576       133.88389       34.728179       0
       11418.446       98.155814       48.995329       0
       11430.317       149.74543       44.655294       0
       11442.188       165.51930       63.554413       0
       11454.058       198.20690       57.047942       0
       11465.929       93.116869       79.181957       0
       11477.800       267.61833       70.516687       0
       11489.670       121.59511       97.181346       0
       11501.541       140.41466       91.935516       0
       11513.412       51.305324       119.95442       0
       11525.282       73.925747       108.97795       0
       11537.153       17.932756       160.45319       0
       11549.024       222.93836       152.23066       0
       11560.895       184.29883       235.53122       0
       11572.765       273.49490       229.01557       0
       11584.636       233.86756       358.97510       0
       11596.507       121.32633       349.63208       0
       11608.377      -99.985544       533.44032       0
       11620.248      -177.07128       513.13602       0
       11632.119       655.88158       789.43335       0
       11643.989      -358.38648       802.88532       0
       11655.860      -398.33782       1228.3810       0
       11667.731      -524.58264       1238.3176       0
       11679.601      -1287.5564       2020.7700       0
       11691.472      -940.77013       2089.5754       0
       11703.343       1803.1926       3459.8107       0
       11715.213       1029.3789       3443.3758       0
       11727.084       2487.1952       4875.4583       0
       11738.955       262.88135       5316.2786       0
