#WAVELENGTH FLUX ERROR MASK
       10177.290       2158.5717       3458.6802       0
       10199.774      -2094.2962       2989.5387       0
       10222.257       2285.9212       2788.1723       0
       10244.741      -1854.9176       2270.2289       0
       10267.224      -200.25448       2046.6126       0
       10289.708      -418.18403       1709.3943       0
       10312.192      -441.18276       1565.9068       0
       10334.675       729.76496       1357.5453       0
       10357.159       229.50486       1268.7460       0
       10379.642       57.144869       930.61935       0
       10402.126       548.60648       1065.0036       0
       10424.609       484.63311       933.51101       0
       10447.093       300.82155       852.21397       0
       10469.576      -20.977886       576.76093       0
       10492.060       205.79333       621.15054       0
       10514.543       266.78608       499.34099       0
       10537.027      -36.060223       446.83897       0
       10559.510       84.505464       373.30676       0
       10581.994      -75.779505       340.92422       0
       10604.477      -91.064849       293.21192       0
       10626.961       217.13442       279.00588       0
       10649.444       228.04447       240.92534       0
       10671.928       190.24035       221.67323       0
       10694.412       241.50651       185.72129       0
       10716.895       71.959283       164.92430       0
       10739.379       142.28976       134.48607       0
       10761.862       199.75878       117.21624       0
       10784.346       57.907776       93.143490       0
       10806.829       129.95081       83.154660       0
       10829.313       136.79513       69.825479       0
       10851.796       253.79409       65.787096       0
       10874.280       186.36735       56.620307       0
       10896.763       189.38063       54.481747       0
       10919.247       148.05964       48.026085       0
       10941.730       92.115627       46.696758       0
       10964.214       133.42957       41.624862       0
       10986.697       129.80172       40.391232       0
       11009.181       184.22322       36.779048       1
       11031.665       16.123690       20.223386       1
       11054.148       154.80243       32.168480       1
       11076.632       125.59338       32.117286       1
       11099.115       168.14851       29.866023       1
       11121.599       146.44502       29.695561       1
       11144.082       171.00622       27.214242       1
       11166.566       139.97438       28.300956       1
       11189.049       114.11490       26.246880       1
       11211.533       133.68825       27.487780       1
       11234.016       110.37750       25.792894       1
       11256.500       127.06330       26.746948       1
       11278.983       148.13294       25.583545       1
       11301.467       130.50489       26.307170       1
       11323.950       140.24956       25.106853       1
       11346.434       116.37519       25.527594       1
       11368.917       79.163264       19.553271       1
       11391.401       106.22780       25.058875       1
       11413.885       90.130635       18.786046       1
       11436.368       124.18396       24.638548       1
       11458.852       82.558866       18.653150       1
       11481.335       106.73177       24.451027       1
       11503.819       103.80724       19.005787       1
       11526.302       128.19552       24.653986       1
       11548.786       133.20013       23.527240       1
       11571.269       129.03494       24.462915       1
       11593.753       137.54053       23.011469       1
       11616.236       125.28862       24.031202       1
       11638.720       116.01485       19.418544       1
       11661.203       117.06132       23.504770       1
       11683.687       155.09376       22.677785       1
       11706.170       134.21727       23.116815       1
       11728.654       110.73907       17.866870       1
       11751.137       120.86532       22.546983       1
       11773.621       142.12866       21.609843       1
       11796.105       135.94157       22.242720       1
       11818.588       163.08528       21.273690       1
       11841.072       141.30234       21.819008       1
       11863.555       160.98974       21.110225       1
       11886.039       142.26712       21.664400       1
       11908.522       145.02855       20.663398       1
       11931.006       159.73562       21.538617       1
       11953.489       169.74931       20.502491       1
       11975.973       152.10911       21.115715       1
       11998.456       148.66473       20.155461       1
       12020.940       118.18684       20.412996       1
       12043.423       141.36785       19.672448       1
       12065.907       118.44038       20.063909       1
       12088.390       129.75507       19.358050       1
       12110.874       119.67204       19.957926       1
       12133.358       150.19292       19.410222       1
       12155.841       132.67856       19.940439       1
       12178.325       131.16282       19.020211       1
       12200.808       126.64966       19.558907       1
       12223.292       120.75554       19.266974       1
       12245.775       114.55618       19.293321       1
       12268.259       113.08791       19.073469       1
       12290.742       105.05068       18.987880       1
       12313.226       113.14715       18.941589       1
       12335.709       106.70190       18.752649       1
       12358.193       111.96065       18.287360       1
       12380.676       127.31123       18.789369       1
       12403.160       123.45938       18.654596       1
       12425.643       131.48346       18.666996       1
       12448.127       114.78444       18.515782       1
       12470.610       95.963414       18.169298       1
       12493.094       107.27495       18.379537       1
       12515.578       114.04225       18.227244       1
       12538.061       111.44696       18.227163       1
       12560.545       116.86377       18.099461       1
       12583.028       101.91129       18.043674       1
       12605.512       109.56215       18.022642       1
       12627.995       114.19741       18.080491       1
       12650.479       123.49327       18.013345       1
       12672.962       116.69389       18.031271       1
       12695.446       133.58415       17.787148       1
       12717.929       120.79303       17.849775       1
       12740.413       123.15019       17.668470       1
       12762.896       107.33119       17.515470       1
       12785.380       123.94976       17.406542       1
       12807.863       116.29381       17.415829       1
       12830.347       88.606560       14.255039       1
       12852.830       118.35332       17.273382       1
       12875.314       125.76643       17.221768       1
       12897.798       56.779569       13.347483       1
       12920.281       95.545788       16.757764       1
       12942.765       114.95316       17.014270       1
       12965.248       124.07251       16.895299       1
       12987.732       120.87137       16.858153       1
       13010.215       129.81510       16.672108       1
       13032.699       109.72143       16.609157       1
       13055.182       112.13335       16.418457       1
       13077.666       127.52300       16.648313       1
       13100.149       114.18181       16.345274       1
       13122.633       129.10788       16.629263       1
       13145.116       121.92754       16.248964       1
       13167.600       99.092731       16.059520       1
       13190.083       109.75926       15.994939       1
       13212.567       107.36621       16.057078       1
       13235.051       111.29490       15.728355       1
       13257.534       101.14919       15.889695       1
       13280.018       68.707566       12.750342       1
       13302.501       113.94737       15.872879       1
       13324.985       108.38992       15.544753       1
       13347.468       91.238793       15.670081       1
       13369.952       112.81881       15.602360       1
       13392.435       107.53075       15.657086       1
       13414.919       103.83192       15.302965       1
       13437.402       85.009402       15.357956       1
       13459.886       99.821628       15.189601       1
       13482.369       96.823023       15.312363       1
       13504.853       73.268110       12.403386       1
       13527.336       94.838275       15.232562       1
       13549.820       113.42479       15.087488       1
       13572.303       109.07342       15.321583       1
       13594.787       110.36104       15.170944       1
       13617.271       99.873815       15.140415       1
       13639.754       104.37849       14.862606       1
       13662.238       108.24106       15.263219       1
       13684.721       86.690971       14.694417       1
       13707.205       118.73977       15.417596       1
       13729.688       92.054365       14.934132       1
       13752.172       110.82223       15.315851       1
       13774.655       115.83529       15.212288       1
       13797.139       105.04213       15.371735       1
       13819.622       99.575540       15.076306       1
       13842.106       114.06601       15.365318       1
       13864.589       106.61619       15.010143       1
       13887.073       115.74553       15.376482       1
       13909.556       113.34101       14.986656       1
       13932.040       119.55116       15.378009       1
       13954.523       116.82286       14.950862       1
       13977.007       125.64557       15.329388       1
       13999.491       124.74457       14.894181       1
       14021.974       123.91005       15.076685       1
       14044.458       122.05916       14.818298       1
       14066.941       134.19210       15.113668       1
       14089.425       118.45553       14.616724       1
       14111.908       126.83209       14.929239       1
       14134.392       126.18967       14.620883       1
       14156.875       111.12804       14.726751       1
       14179.359       111.57679       14.449138       1
       14201.842       114.39437       14.773473       1
       14224.326       127.77031       14.532202       1
       14246.809       127.36875       14.778038       1
       14269.293       114.53162       14.275543       1
       14291.776       115.57576       14.417601       1
       14314.260       107.93938       14.110885       1
       14336.744       122.01266       14.448536       1
       14359.227       109.34712       13.962671       1
       14381.711       110.04935       14.291250       1
       14404.194       119.74806       14.214922       1
       14426.678       134.97025       14.492629       1
       14449.161       124.93218       14.175282       1
       14471.645       118.22374       14.312123       1
       14494.128       106.92804       14.015326       1
       14516.612       117.96536       14.279574       1
       14539.095       110.62156       13.993938       1
       14561.579       120.34228       14.395246       1
       14584.062       109.76227       13.962212       1
       14606.546       111.73183       14.291644       1
       14629.029       102.28377       15.082302       1
       14651.513       125.13971       5179133.1       1
       14673.996       106.44957       13.933215       1
       14696.480       128.44292       14.300662       1
       14718.964       67.040468       11.434295       1
       14741.447       120.31684       14.251758       1
       14763.931       122.36454       14.226237       1
       14786.414       122.34161       14.276504       1
       14808.898       118.61358       14.116938       1
       14831.381       102.35519       13.864393       1
       14853.865       94.625124       13.773224       1
       14876.348       119.93060       13.897747       1
       14898.832       117.54458       13.912515       1
       14921.315       129.36746       13.826402       1
       14943.799       110.75913       13.704821       1
       14966.282       101.81793       13.311828       1
       14988.766       103.14521       13.571427       1
       15011.249       105.33180       13.277104       1
       15033.733       106.93848       13.605463       1
       15056.216       129.79407       13.602654       1
       15078.700       117.96523       13.766814       1
       15101.184       115.41215       13.399435       1
       15123.667       111.88839       13.652874       1
       15146.151       120.33753       13.452037       1
       15168.634       88.269958       13.397825       1
       15191.118       101.08010       12.794316       1
       15213.601       99.630132       13.474663       1
       15236.085       95.618907       12.738315       1
       15258.568       96.502226       13.463327       1
       15281.052       103.11943       12.936465       1
       15303.535       96.559477       13.501743       1
       15326.019       91.637714       12.717590       1
       15348.502       92.679578       13.453194       1
       15370.986       96.844588       12.948304       1
       15393.469       99.618453       13.520163       1
       15415.953       90.624622       12.862542       1
       15438.437       103.85651       13.549009       1
       15460.920       93.298990       12.917554       1
       15483.404       99.440075       13.501256       1
       15505.887       96.422284       12.971593       1
       15528.371       117.52122       13.757546       1
       15550.854       92.565612       12.974515       1
       15573.338       100.25906       13.398335       1
       15595.821       92.334734       12.983861       1
       15618.305       97.511225       13.406249       1
       15640.788       98.751870       12.936914       1
       15663.272       96.095956       13.477244       1
       15685.755       108.86327       12.858956       1
       15708.239       107.21824       13.491029       1
       15730.722       112.85668       12.951189       1
       15753.206       101.70854       13.121631       1
       15775.689       90.212130       12.708749       1
       15798.173       93.804835       13.260947       1
       15820.657       105.32031       12.874631       1
       15843.140       100.89031       13.406027       1
       15865.624       89.697836       12.743371       1
       15888.107       93.567284       13.279073       1
       15910.591       103.32098       12.859603       1
       15933.074       86.552711       13.343630       1
       15955.558       95.339172       12.925185       1
       15978.041       103.00150       13.427289       1
       16000.525       98.720220       12.899577       1
       16023.008       83.754072       13.249582       1
       16045.492       109.39902       13.051510       1
       16067.975       99.306501       13.534566       1
       16090.459       104.86918       13.025993       1
       16112.942       94.697848       13.491635       1
       16135.426       81.415924       12.918355       1
       16157.909       88.259241       13.616994       1
       16180.393       88.393695       12.795342       1
       16202.877       89.909298       13.629724       1
       16225.360       92.122707       13.187458       1
       16247.844       90.655192       13.850391       1
       16270.327       82.529928       13.180549       1
       16292.811       101.23296       13.964932       1
       16315.294       91.872055       13.335720       1
       16337.778       109.18555       14.079534       1
       16360.261       90.990567       13.048572       1
       16382.745       101.75354       14.087112       1
       16405.228       93.789271       13.415798       1
       16427.712       70.860952       11.594527       1
       16450.195       85.269010       13.500482       1
       16472.679       115.86806       14.453946       1
       16495.162       89.311203       13.932505       1
       16517.646       74.941146       14.775679       1
       16540.129       96.744071       14.840045       1
       16562.613       93.915910       15.997484       1
       16585.097       92.627685       16.242588       1
       16607.580       103.78930       18.137203       1
       16630.064       88.582542       18.624905       1
       16652.547       118.70060       21.467885       1
       16675.031       129.84545       22.628346       1
       16697.514       130.36168       26.005297       1
       16719.998       117.10679       28.116507       1
       16742.481       127.91061       32.900509       1
       16764.965       131.91877       36.114755       0
       16787.448       114.45061       42.730392       0
       16809.932       132.89994       46.540258       0
       16832.415       132.54416       54.519107       0
       16854.899       95.501502       57.886673       0
       16877.382       83.462828       66.924893       0
       16899.866       214.66701       72.625199       0
       16922.350       92.619883       83.137284       0
       16944.833       49.600139       88.402340       0
       16967.317       18.625262       102.61662       0
       16989.800       114.89598       110.06924       0
       17012.284       188.63105       127.57432       0
       17034.767       42.664222       134.75112       0
       17057.251       60.717111       155.02168       0
       17079.734       63.074331       166.52936       0
       17102.218       66.580597       197.02305       0
       17124.701      -59.270290       214.71414       0
       17147.185       68.559066       258.81908       0
       17169.668       112.47531       286.43884       0
