#WAVELENGTH FLUX ERROR MASK
       10219.964      -488.04403       3277.9780       0
       10243.086      -6219.4441       2347.8246       0
       10266.209       1302.4678       2488.5053       0
       10289.331      -27.478463       2056.1778       0
       10312.453      -86.819734       1815.5162       0
       10335.575      -1496.0201       1602.6391       0
       10358.697       566.26002       1507.3128       0
       10381.820      -544.64824       1308.3895       0
       10404.942       989.87185       1271.3973       0
       10428.064       232.82535       1067.7968       0
       10451.186      -886.00285       951.32338       0
       10474.308       1094.4439       795.82899       0
       10497.431       486.14834       676.81055       0
       10520.553       560.55395       560.99866       0
       10543.675      -275.43557       487.88626       0
       10566.797       47.645668       408.74898       0
       10589.919       90.697907       370.46232       0
       10613.042       317.90274       329.23864       0
       10636.164       331.34429       300.87223       0
       10659.286       72.618952       260.65724       0
       10682.408       443.09017       236.92543       0
       10705.530       410.10397       201.00946       0
       10728.653       252.55870       169.78463       0
       10751.775       162.31494       139.32393       0
       10774.897       268.26448       118.17745       0
       10798.019       195.61160       97.349514       0
       10821.142       275.85789       85.901311       0
       10844.264       164.45483       73.234756       0
       10867.386       225.71271       70.054228       0
       10890.508       196.62593       60.197729       0
       10913.630       227.21158       57.362155       0
       10936.753       223.80830       52.622042       0
       10959.875       226.81934       50.248873       0
       10982.997       225.92959       46.508940       0
       11006.119       209.25871       44.424848       1
       11029.241       247.60631       14011881.       1
       11052.364       232.43032       38.604505       1
       11075.486       228.11369       35.899399       1
       11098.608       209.54043       11768976.       1
       11121.730       213.76444       32.842012       1
       11144.852       230.26351       32.602235       1
       11167.975       222.72461       31.370151       1
       11191.097       239.78899       32.079386       1
       11214.219       212.19687       30.347504       1
       11237.341       181.22870       27.070825       1
       11260.463       222.16247       29.742731       1
       11283.586       243.67597       30.870243       1
       11306.708       200.25378       28.832098       1
       11329.830       208.40105       29.466041       1
       11352.952       225.91163       28.685601       1
       11376.074       216.30149       28.895712       1
       11399.197       199.41668       28.019241       1
       11422.319       206.43578       28.281462       1
       11445.441       228.73595       27.831005       1
       11468.563       204.39572       28.057316       1
       11491.686       231.17953       29.162644       1
       11514.808       202.93259       27.754487       1
       11537.930       222.87178       28.664005       1
       11561.052       166.06206       28.167845       1
       11584.174       206.30896       28.429053       1
       11607.297       193.85841       27.480410       1
       11630.419       210.91024       26.568200       1
       11653.541       191.67094       27.046300       1
       11676.663       225.35396       26.306100       1
       11699.785       235.18861       26.952230       1
       11722.908       213.32039       25.494784       1
       11746.030       196.11238       25.493437       1
       11769.152       223.71250       25.173105       1
       11792.274       209.32518       25.021587       1
       11815.396       208.03613       24.534858       1
       11838.519       223.77364       24.684753       1
       11861.641       223.05386       24.195267       1
       11884.763       209.45985       24.280332       1
       11907.885       231.44392       23.899305       1
       11931.007       231.33247       24.606620       1
       11954.130       216.17806       23.433064       1
       11977.252       198.37505       23.293112       1
       12000.374       223.43870       23.195869       1
       12023.496       205.09778       23.201877       1
       12046.618       219.41674       22.941173       1
       12069.741       206.44181       22.803714       1
       12092.863       202.62635       22.635273       1
       12115.985       205.57067       23.153325       1
       12139.107       200.69173       7440832.0       1
       12162.230       212.99514       22.637812       1
       12185.352       208.62949       22.132536       1
       12208.474       218.36929       22.420986       1
       12231.596       208.31951       21.727649       1
       12254.718       239.12082       23.278499       1
       12277.841       205.51368       21.640929       1
       12300.963       196.60527       23.453068       1
       12324.085       217.35144       7097989.2       1
       12347.207       193.83569       21.570294       1
       12370.329       146.80779       18.515164       1
       12393.452       207.75602       21.453875       1
       12416.574       218.60376       21.017523       1
       12439.696       206.98919       21.005336       1
       12462.818       212.77675       20.972165       1
       12485.940       196.68036       21.040038       1
       12509.063       199.16027       20.547139       1
       12532.185       210.97883       21.009746       1
       12555.307       205.35618       20.553031       1
       12578.429       224.46399       21.337393       1
       12601.551       191.56625       20.134994       1
       12624.674       196.98298       20.640571       1
       12647.796       218.29392       20.404278       1
       12670.918       220.40964       21.165283       1
       12694.040       214.08201       20.281857       1
       12717.162       194.67296       20.565544       1
       12740.285       214.60299       19.807711       1
       12763.407       208.09306       20.435159       1
       12786.529       207.91630       19.631567       1
       12809.651       193.99389       19.801044       1
       12832.774       200.81611       19.276639       1
       12855.896       224.36130       20.091427       1
       12879.018       198.71582       19.285198       1
       12902.140       195.72130       19.185431       1
       12925.262       198.55253       19.145061       1
       12948.385       195.63063       19.659668       1
       12971.507       199.82149       18.965606       1
       12994.629       214.01422       19.270842       1
       13017.751       190.45770       18.722944       1
       13040.873       204.98789       19.335244       1
       13063.996       204.03047       18.536707       1
       13087.118       209.10580       18.874158       1
       13110.240       210.02598       18.542460       1
       13133.362       213.45489       18.829593       1
       13156.484       191.53567       18.250819       1
       13179.607       207.02942       18.809720       1
       13202.729       190.21508       18.064363       1
       13225.851       190.08554       18.222821       1
       13248.973       199.97403       17.967219       1
       13272.095       199.91278       5837675.4       1
       13295.218       205.22384       17.986332       1
       13318.340       185.68584       17.907437       1
       13341.462       200.44020       17.812234       1
       13364.584       206.33460       18.037085       1
       13387.707       206.86974       17.802953       1
       13410.829       209.44056       18.065940       1
       13433.951       201.92671       17.595321       1
       13457.073       215.03829       18.294408       1
       13480.195       204.51795       17.240516       1
       13503.318       204.71287       18.015160       1
       13526.440       202.96740       17.305828       1
       13549.562       208.35768       17.933669       1
       13572.684       220.04090       17.509548       1
       13595.806       219.08828       18.089328       1
       13618.929       219.96127       17.523892       1
       13642.051       227.97290       17.956886       1
       13665.173       170.05557       15.412576       1
       13688.295       235.08811       18.043064       1
       13711.417       240.57092       17.667131       1
       13734.540       245.26734       5593907.5       1
       13757.662       251.13115       17.812126       1
       13780.784       231.43346       18.089588       1
       13803.906       210.59541       17.430502       1
       13827.028       210.70481       17.773858       1
       13850.151       203.51597       17.366591       1
       13873.273       204.26464       17.348524       1
       13896.395       199.35006       17.311370       1
       13919.517       208.31651       17.685692       1
       13942.639       203.85534       16.999771       1
       13965.762       220.43871       17.883945       1
       13988.884       195.08496       17.021344       1
       14012.006       224.85469       17.570659       1
       14035.128       209.70820       16.944967       1
       14058.251       203.33041       17.307606       1
       14081.373       197.23511       16.759015       1
       14104.495       200.10042       17.025295       1
       14127.617       198.22184       16.680063       1
       14150.739       210.56780       17.357230       1
       14173.862       204.50424       16.718237       1
       14196.984       203.92414       17.209269       1
       14220.106       184.94603       16.471138       1
       14243.228       198.95530       16.726417       1
       14266.350       199.53408       16.506966       1
       14289.473       201.20324       16.776094       1
       14312.595       189.95278       16.208683       1
       14335.717       190.44518       16.375587       1
       14358.839       191.38313       16.214323       1
       14381.961       181.51738       16.390560       1
       14405.084       180.28352       15.937785       1
       14428.206       229.08439       15.767347       1
       14451.328       187.32707       16.144575       1
       14474.450       189.37919       16.444663       1
       14497.572       194.05685       16.007979       1
       14520.695       182.84292       16.376150       1
       14543.817       198.30416       16.227950       1
       14566.939       193.76220       16.467104       1
       14590.061       190.97063       16.177432       1
       14613.183       195.20811       16.812169       1
       14636.306       207.84314       16.458960       1
       14659.428       209.32940       16.873107       1
       14682.550       186.48600       16.270078       1
       14705.672       181.08686       16.353507       1
       14728.795       185.93491       16.216555       1
       14751.917       188.06336       16.623495       1
       14775.039       170.77956       16.145888       1
       14798.161       183.97903       16.534024       1
       14821.283       189.01541       16.436661       1
       14844.406       115.53715       14.003525       1
       14867.528       157.86645       15.995160       1
       14890.650       181.38331       16.462673       1
       14913.772       114.55634       13.662703       1
       14936.894       121.61237       14.332663       1
       14960.017       178.35118       16.081771       1
       14983.139       171.25340       16.045200       1
       15006.261       188.63267       15.896970       1
       15029.383       180.92654       15.997037       1
       15052.505       179.09431       15.681047       1
       15075.628       175.76201       16.057119       1
       15098.750       191.18259       15.813129       1
       15121.872       191.56569       16.444882       1
       15144.994       175.37915       15.676491       1
       15168.116       187.24902       16.503081       1
       15191.239       176.74742       15.556083       1
       15214.361       127.70728       13.831649       1
       15237.483       182.56899       15.700947       1
       15260.605       182.39087       15.966124       1
       15283.727       174.44396       15.567902       1
       15306.850       175.24714       15.777081       1
       15329.972       184.24554       15.727411       1
       15353.094       176.75255       15.890366       1
       15376.216       176.50347       15.673541       1
       15399.339       169.63676       16.106280       1
       15422.461       189.18986       15.808113       1
       15445.583       176.19517       15.997119       1
       15468.705       189.77583       15.875587       1
       15491.827       199.23378       16.659798       1
       15514.950       182.66047       15.779459       1
       15538.072       183.08144       16.061818       1
       15561.194       170.06186       15.645819       1
       15584.316       193.17997       16.093434       1
       15607.438       186.52509       15.839680       1
       15630.561       181.32209       15.847807       1
       15653.683       180.76288       15.762074       1
       15676.805       176.72853       15.922740       1
       15699.927       177.27886       15.679208       1
       15723.049       205.45706       16.686376       1
       15746.172       177.75249       4943292.0       1
       15769.294       188.27473       15.996650       1
       15792.416       175.78255       15.526860       1
       15815.538       178.11406       15.864677       1
       15838.660       183.74805       15.659663       1
       15861.783       190.38859       16.145409       1
       15884.905       189.93756       15.682919       1
       15908.027       167.17568       15.738734       1
       15931.149       180.62120       15.731169       1
       15954.271       179.20094       15.759759       1
       15977.394       168.45368       15.632080       1
       16000.516       162.82385       15.671274       1
       16023.638       186.97444       15.718636       1
       16046.760       183.50062       16.316157       1
       16069.883       121.19801       13.777463       1
       16093.005       187.72893       16.566459       1
       16116.127       160.98606       15.598123       1
       16139.249       163.37194       15.906950       1
       16162.371       163.68053       15.640319       1
       16185.494       170.86109       16.269512       1
       16208.616       170.16843       15.860764       1
       16231.738       177.38714       16.276085       1
       16254.860       188.20090       16.038327       1
       16277.982       171.34572       16.147901       1
       16301.105       175.30822       16.127623       1
       16324.227       103.43002       14.029676       1
       16347.349       177.66129       16.224774       1
       16370.471       177.61340       16.634942       1
       16393.593       161.43640       15.969276       1
       16416.716       185.43361       16.705997       1
       16439.838       168.52104       16.188214       1
       16462.960       136.02747       15.293741       1
       16486.082       154.50304       16.287138       1
       16509.204       155.14077       17.063284       1
       16532.327       177.91240       17.154774       1
       16555.449       166.29770       17.844193       1
       16578.571       164.98797       18.285292       1
       16601.693       153.42488       19.409942       1
       16624.816       166.02964       20.310568       1
       16647.938       166.69063       22.316193       1
       16671.060       150.13528       23.698235       1
       16694.182       137.24398       26.204214       1
       16717.304       135.38464       28.852265       1
       16740.427       161.99918       33.237819       1
       16763.549       162.03314       36.902964       0
       16786.671       166.71902       42.770667       0
       16809.793       128.93879       47.380644       0
       16832.915       114.23401       46.879688       0
       16856.038       92.664308       53.443751       0
       16879.160       38.900408       59.925347       0
       16902.282       141.97638       75.390642       0
       16925.404       168.53557       85.976949       0
       16948.526       130.59014       94.286880       0
       16971.649       139.41529       106.32050       0
       16994.771       222.02875       117.89324       0
       17017.893       221.52883       133.58439       0
       17041.015       192.29691       145.52700       0
       17064.137       209.95408       163.37287       0
       17087.260       5.8250171       176.88539       0
       17110.382       25.532491       206.09782       0
       17133.504      -130.69621       227.41381       0
       17156.626       101.41122       272.44400       0
       17179.748       239.89119       304.05223       0
       17202.871       624.42655       370.82982       0
       17225.993      -345.22443       342.43215       0
       17249.115       473.38283       454.43301       0
       17272.237       188.20084       496.39720       0
       17295.360       60.109857       561.61877       0
       17318.482       530.76443       611.54586       0
       17341.604      -147.49126       603.73410       0
       17364.726       170.48649       747.52690       0
       17387.848       65.748042       846.69243       0
       17410.971       852.55923       927.27543       0
