#WAVELENGTH FLUX ERROR MASK
       10219.964       83.172734       213.92940       0
       10243.086       1571.3914       195.83462       0
       10266.209       3616.7955       188.89350       0
       10289.331       1462.1301       166.53706       0
       10312.453       1819.0806       162.22111       0
       10335.575       911.03956       148.73573       0
       10358.697      -82.670010       145.87135       0
       10381.820      -102.12120       136.29830       0
       10404.942      -505.78912       120.36647       0
       10428.064       1262.7002       120.22702       0
       10451.186      -384.20054       104.51408       0
       10474.308       221.16979       101.99231       0
       10497.431      -1280.5668       89.858554       0
       10520.553       108.95429       85.607870       0
       10543.675       114.24906       73.172744       0
       10566.797       254.84344       73.381912       0
       10589.919       71.319102       70.309892       0
       10613.042      -62.788938       64.787142       0
       10636.164       209.98125       64.830931       0
       10659.286       180.10635       58.450691       0
       10682.408      -196.29139       55.996682       0
       10705.530       97.984902       50.654235       0
       10728.653       52.662087       47.611109       0
       10751.775       185.09112       42.553254       0
       10774.897       21.280824       39.562988       0
       10798.019       191.86765       35.740310       0
       10821.142       59.554605       34.164881       0
       10844.264       120.04013       31.048093       0
       10867.386       99.317948       26.923487       0
       10890.508       154.77823       28.179125       0
       10913.630       175.91971       27.642717       0
       10936.753       124.82499       26.103710       0
       10959.875       108.77528       26.254579       0
       10982.997       144.60502       24.626823       0
       11006.119       93.936705       24.407001       1
       11029.241       149.18964       22.915246       1
       11052.364       84.435465       22.551727       1
       11075.486       116.91522       21.712439       1
       11098.608       88.209756       21.446952       1
       11121.730       144.69598       20.788071       1
       11144.852       147.83933       21.205943       1
       11167.975       126.16666       20.184402       1
       11191.097       120.66336       20.641515       1
       11214.219       124.73314       19.903798       1
       11237.341       89.929879       20.103199       1
       11260.463       130.84464       19.645425       1
       11283.586       122.87082       19.941250       1
       11306.708       131.66812       19.557818       1
       11329.830       124.88661       20.023661       1
       11352.952       137.75439       19.415973       1
       11376.074       124.51720       19.579610       1
       11399.197       121.11764       19.100742       1
       11422.319       137.41730       19.520842       1
       11445.441       110.11748       18.894646       1
       11468.563       119.64621       19.227397       1
       11491.686       131.91991       5430582.6       1
       11514.808       125.88241       19.206709       1
       11537.930       159.48068       19.112513       1
       11561.052       126.94984       5400729.1       1
       11584.174       133.66380       18.857997       1
       11607.297       128.63536       19.314810       1
       11630.419       130.24803       18.649725       1
       11653.541       132.14409       19.416784       1
       11676.663       117.96253       18.446611       1
       11699.785       108.92309       19.005828       1
       11722.908       113.88791       18.223610       1
       11746.030       102.12277       16.722248       1
       11769.152       105.27220       17.843700       1
       11792.274       131.73635       19.039349       1
       11815.396       123.75253       17.932419       1
       11838.519       105.70916       18.251479       1
       11861.641       125.51682       5061350.1       1
       11884.763       124.87563       18.269819       1
       11907.885       117.83921       17.604690       1
       11931.007       118.10486       18.285148       1
       11954.130       116.53735       17.453153       1
       11977.252       129.10583       18.176869       1
       12000.374       139.68724       17.617342       1
       12023.496       102.41866       17.466747       1
       12046.618       123.10085       17.346214       1
       12069.741       82.513136       17.545367       1
       12092.863       116.23553       17.237687       1
       12115.985       116.29733       17.305237       1
       12139.107       135.87497       17.146925       1
       12162.230       129.05865       17.410473       1
       12185.352       114.30853       16.965695       1
       12208.474       92.416430       17.267370       1
       12231.596       118.40247       16.831558       1
       12254.718       125.37793       17.683664       1
       12277.841       129.76172       16.897531       1
       12300.963       126.34511       17.675022       1
       12324.085       114.05405       16.700386       1
       12347.207       104.32388       17.096808       1
       12370.329       117.92797       16.636440       1
       12393.452       117.93525       16.855071       1
       12416.574       122.02815       16.500947       1
       12439.696       114.88407       16.741744       1
       12462.818       114.93407       16.423412       1
       12485.940       125.46749       17.038378       1
       12509.063       113.06734       16.430646       1
       12532.185       108.34444       16.553429       1
       12555.307       109.51843       16.186109       1
       12578.429       121.98107       16.861465       1
       12601.551       127.07938       4627624.6       1
       12624.674       120.55131       16.629237       1
       12647.796       117.22256       16.247721       1
       12670.918       120.51451       16.796877       1
       12694.040       128.57045       16.279371       1
       12717.162       132.09324       16.604670       1
       12740.285       104.16944       16.043509       1
       12763.407       119.28902       16.329306       1
       12786.529       112.99198       15.992185       1
       12809.651       109.64618       16.233469       1
       12832.774       107.71016       15.925438       1
       12855.896       122.85310       16.465562       1
       12879.018       114.56290       15.939216       1
       12902.140       114.64662       16.106407       1
       12925.262       127.24833       16.014417       1
       12948.385       119.98503       16.136486       1
       12971.507       117.61857       15.788141       1
       12994.629       115.14984       16.368157       1
       13017.751       115.04063       15.758539       1
       13040.873       78.127081       14.431853       1
       13063.996       114.27781       15.546113       1
       13087.118       125.36434       16.125669       1
       13110.240       116.31827       15.567765       1
       13133.362       115.38380       15.833691       1
       13156.484       119.55339       15.512548       1
       13179.607       115.28210       15.690247       1
       13202.729       114.07126       15.441975       1
       13225.851       112.21406       15.578584       1
       13248.973       118.98518       15.437166       1
       13272.095       112.15160       15.535360       1
       13295.218       108.88642       15.304037       1
       13318.340       126.20598       15.813154       1
       13341.462       122.43443       15.425805       1
       13364.584       120.93107       15.630922       1
       13387.707       108.40958       15.225870       1
       13410.829       136.20267       16.052739       1
       13433.951       124.31968       15.392736       1
       13457.073       113.18262       15.619224       1
       13480.195       116.91173       15.072094       1
       13503.318       120.91425       15.450684       1
       13526.440       124.54498       15.172765       1
       13549.562       134.42904       15.770674       1
       13572.684       126.55534       15.287866       1
       13595.806       144.97661       15.753347       1
       13618.929       145.76902       15.483407       1
       13642.051       148.42488       15.738855       1
       13665.173       159.54444       15.586902       1
       13688.295       162.60112       15.944813       1
       13711.417       166.55996       15.644315       1
       13734.540       167.85062       4210316.0       1
       13757.662       160.44561       15.653296       1
       13780.784       143.05706       15.860699       1
       13803.906       131.07753       15.339709       1
       13827.028       120.68385       16.047056       1
       13850.151       114.10722       15.168861       1
       13873.273       122.43716       4204217.1       1
       13896.395       124.15004       15.302604       1
       13919.517       125.84694       15.789832       1
       13942.639       113.41157       14.827432       1
       13965.762       127.36212       15.442414       1
       13988.884       118.33102       15.119861       1
       14012.006       125.84993       15.633561       1
       14035.128       124.73401       15.043644       1
       14058.251       130.74275       15.528391       1
       14081.373       120.23752       15.000442       1
       14104.495       126.55445       15.718853       1
       14127.617       113.82657       14.924895       1
       14150.739       112.78798       15.174408       1
       14173.862       118.90742       15.019479       1
       14196.984       119.52127       15.244727       1
       14220.106       106.55547       14.861310       1
       14243.228       115.10495       15.141509       1
       14266.350       111.29857       14.866078       1
       14289.473       105.97997       15.043765       1
       14312.595       115.14734       14.802995       1
       14335.717       121.20698       15.285711       1
       14358.839       111.80681       14.829276       1
       14381.961       117.75291       15.291661       1
       14405.084       113.91482       14.703925       1
       14428.206       108.73744       14.984671       1
       14451.328       125.26535       14.928084       1
       14474.450       84.345345       13.507565       1
       14497.572       116.11446       14.765426       1
       14520.695       108.73798       15.376045       1
       14543.817       115.50583       14.793725       1
       14566.939       88.295206       15.083404       1
       14590.061       114.09735       14.753693       1
       14613.183       113.13230       15.052072       1
       14636.306       120.21533       14.864961       1
       14659.428       118.34019       15.340878       1
       14682.550       113.00104       14.851961       1
       14705.672       121.43504       15.306477       1
       14728.795       116.63080       14.872612       1
       14751.917       111.00521       15.081903       1
       14775.039       108.88745       14.790354       1
       14798.161       92.547793       14.904702       1
       14821.283       110.07541       14.827686       1
       14844.406       110.77200       15.171721       1
       14867.528       103.11835       14.678301       1
       14890.650       104.78345       15.101405       1
       14913.772       98.684879       14.647936       1
       14936.894       100.05082       14.842763       1
       14960.017       108.03590       14.723514       1
       14983.139       115.72114       15.569898       1
       15006.261       111.73457       14.680727       1
       15029.383       120.16604       15.114382       1
       15052.505       108.61718       14.607621       1
       15075.628       114.41822       14.849858       1
       15098.750       114.85713       14.683377       1
       15121.872       113.71015       14.978549       1
       15144.994       103.84350       14.553169       1
       15168.116       108.48794       15.324109       1
       15191.239       109.35051       14.536236       1
       15214.361       95.138022       14.853586       1
       15237.483       108.63162       14.588455       1
       15260.605       105.13053       14.892563       1
       15283.727       106.79713       14.557377       1
       15306.850       111.43928       15.008638       1
       15329.972       124.08706       14.702159       1
       15353.094       96.428089       14.989361       1
       15376.216       112.93127       14.638531       1
       15399.339       117.85658       15.193699       1
       15422.461       109.04943       14.611434       1
       15445.583       93.394816       13.506272       1
       15468.705       88.277112       13.526616       1
       15491.827       111.96521       14.795422       1
       15514.950       106.21633       14.624146       1
       15538.072       113.30170       15.581268       1
       15561.194       99.764794       14.580505       1
       15584.316       117.25623       14.932766       1
       15607.438       115.38932       14.725467       1
       15630.561       113.69883       15.259625       1
       15653.683       117.99668       14.662879       1
       15676.805       106.37340       15.239403       1
       15699.927       107.40993       14.594117       1
       15723.049       112.19518       15.056042       1
       15746.172       110.41343       14.533440       1
       15769.294       77.881703       13.288657       1
       15792.416       108.97585       14.549509       1
       15815.538       111.65427       14.852207       1
       15838.660       79.720456       13.341538       1
       15861.783       82.827467       13.287422       1
       15884.905       111.57368       14.624333       1
       15908.027       104.58973       14.780424       1
       15931.149       113.84612       14.822757       1
       15954.271       113.10894       15.263706       1
       15977.394       103.27408       14.554967       1
       16000.516       87.370148       13.424679       1
       16023.638       105.13456       14.613335       1
       16046.760       113.20331       14.868912       1
       16069.883       106.20498       14.654198       1
       16093.005       104.00603       14.828222       1
       16116.127       107.55419       14.633067       1
       16139.249       112.72115       14.986000       1
       16162.371       103.62729       14.553381       1
       16185.494       82.559754       15.020091       1
       16208.616       95.313054       4005975.8       1
       16231.738       79.227559       13.757906       1
       16254.860       103.87759       14.692538       1
       16277.982       113.39202       15.198149       1
       16301.105       101.06052       14.757175       1
       16324.227       95.274540       15.080467       1
       16347.349       106.38680       14.983026       1
       16370.471       95.305223       15.141157       1
       16393.593       42.392037       11.920799       1
       16416.716       108.31483       14.996082       1
       16439.838       98.974982       14.820288       1
       16462.960       101.36132       15.053743       1
       16486.082       106.98646       14.983960       1
       16509.204       97.007421       15.445390       1
       16532.327       95.827390       15.295923       1
       16555.449       101.56776       15.720402       1
       16578.571       98.114078       15.692000       1
       16601.693       66.108247       14.761524       1
       16624.816       100.63900       16.578429       1
       16647.938       96.467641       17.478526       1
       16671.060       98.458379       17.921648       1
       16694.182       81.816027       18.965874       1
       16717.304       114.69806       19.999809       1
       16740.427       109.46770       21.672922       1
       16763.549       95.730854       22.282374       0
       16786.671       103.35986       24.214154       0
       16809.793       108.88413       25.399633       0
       16832.915       85.372100       27.608948       0
       16856.038       129.18190       28.605525       0
       16879.160       155.09448       31.245557       0
       16902.282       104.19841       31.641797       0
       16925.404       41.462089       30.860540       0
       16948.526       104.61775       35.432885       0
       16971.649       116.43318       38.034320       0
       16994.771       80.253050       39.427974       0
       17017.893       94.926707       43.302430       0
       17041.015       72.253215       43.962683       0
       17064.137       160.27658       47.228864       0
       17087.260       127.54720       49.288302       0
       17110.382       20.912286       53.154636       0
       17133.504       59.470326       55.052404       0
       17156.626      -48.545694       54.583710       0
       17179.748      -139.93048       57.401393       0
       17202.871      -45.512139       68.969912       0
       17225.993       117.05096       72.255141       0
       17249.115      -418.57660       78.372077       0
       17272.237       168.06597       81.616571       0
       17295.360       164.86751       88.645254       0
       17318.482       100.03643       89.940432       0
       17341.604      -407.15390       97.666233       0
       17364.726       450.25132       104.22503       0
       17387.848      -23.531405       109.82168       0
       17410.971      -13.365267       116.15997       0
