#WAVELENGTH FLUX ERROR MASK
       10193.918       2362.6065       271.02356       0
       10216.680      -2752.2474       248.83565       0
       10239.442       1699.1033       235.76860       0
       10262.204       1518.9907       216.59044       0
       10284.966       520.31083       203.84586       0
       10307.728      -607.41906       186.98547       0
       10330.490       1398.5839       180.13088       0
       10353.252      -99.546505       168.64019       0
       10376.014      -31.343885       163.21798       0
       10398.776       1370.6552       155.41545       0
       10421.538      -380.98252       147.71904       0
       10444.300      -599.17994       117.95420       0
       10467.062      -161.02866       128.59391       0
       10489.825       275.97991       117.30384       0
       10512.587       766.94165       109.71248       0
       10535.349       289.71048       100.02657       0
       10558.111       473.76518       94.863597       0
       10580.873       371.77663       87.347525       0
       10603.635       120.85247       83.307802       0
       10626.397       290.15286       78.104196       0
       10649.159       202.11284       75.658391       0
       10671.921       231.32712       70.164210       0
       10694.683       216.96253       66.273919       0
       10717.445       341.35751       60.961315       0
       10740.207       297.26441       56.332448       0
       10762.969       299.27072       50.803943       0
       10785.731       319.91974       47.701478       0
       10808.493       262.32618       42.876056       0
       10831.255       375.69020       41.297228       0
       10854.017       323.44783       37.975635       0
       10876.779       310.08360       37.165799       0
       10899.541       259.27670       34.646462       0
       10922.303       327.49496       34.550946       0
       10945.065       338.65695       32.924395       0
       10967.827       267.62454       32.202961       0
       10990.590       299.19812       30.660473       0
       11013.352       270.37914       30.304169       1
       11036.114       285.98157       28.741614       1
       11058.876       322.53180       28.765386       1
       11081.638       262.42210       27.071966       1
       11104.400       297.85502       27.422548       1
       11127.162       251.28113       26.002061       1
       11149.924       287.24717       26.539564       1
       11172.686       277.88447       25.462488       1
       11195.448       295.69642       26.060401       1
       11218.210       304.25073       25.329108       1
       11240.972       236.48665       25.549080       1
       11263.734       288.36414       25.910073       1
       11286.496       270.16608       25.584129       1
       11309.258       265.67237       25.483270       1
       11332.020       279.68150       25.277892       1
       11354.782       195.25982       21.233832       1
       11377.544       288.23615       25.037188       1
       11400.306       266.28381       24.324308       1
       11423.068       277.50244       24.876153       1
       11445.830       262.40940       24.150250       1
       11468.592       287.02967       24.787848       1
       11491.355       283.05422       24.158107       1
       11514.117       248.73228       24.292350       1
       11536.879       283.58722       24.031819       1
       11559.641       262.90612       24.436571       1
       11582.403       293.98809       24.033911       1
       11605.165       259.18748       24.254316       1
       11627.927       265.80285       23.708147       1
       11650.689       309.18229       24.462432       1
       11673.451       254.35946       23.483714       1
       11696.213       325.30087       24.311915       1
       11718.975       292.44529       23.385721       1
       11741.737       278.94373       24.306985       1
       11764.499       293.95592       23.192988       1
       11787.261       291.32844       23.577300       1
       11810.023       281.38446       22.893205       1
       11832.785       259.34238       22.823379       1
       11855.547       276.73955       22.680152       1
       11878.309       274.44841       22.764739       1
       11901.071       123.08988       16.010670       1
       11923.833       281.63245       22.877360       1
       11946.595       277.94542       22.295523       1
       11969.357       271.34242       22.719904       1
       11992.120       288.49272       22.195675       1
       12014.882       284.55468       22.605316       1
       12037.644       254.92535       22.002548       1
       12060.406       250.12315       22.355175       1
       12083.168       270.73301       21.984800       1
       12105.930       281.94948       22.320783       1
       12128.692       307.26534       22.111271       1
       12151.454       275.21755       22.265442       1
       12174.216       124.70371       15.300343       1
       12196.978       251.60629       22.009842       1
       12219.740       308.40259       21.762405       1
       12242.502       245.09418       21.941132       1
       12265.264       285.32355       21.731850       1
       12288.026       283.18964       21.996883       1
       12310.788       113.46674       15.057645       1
       12333.550       106.46522       16.137354       1
       12356.312       264.79860       21.259293       1
       12379.074       254.85302       21.612411       1
       12401.836       258.68671       21.289078       1
       12424.598       223.32170       21.463759       1
       12447.360       277.59622       21.412085       1
       12470.122       287.28462       21.828907       1
       12492.885       312.40364       21.619519       1
       12515.647       304.58753       21.861630       1
       12538.409       322.00693       21.561391       1
       12561.171       327.92645       22.318920       1
       12583.933       513.39069       23.448125       1
       12606.695       715.49683       25.940943       1
       12629.457       944.60449       27.101863       1
       12652.219       1341.8435       30.380528       1
       12674.981       1064.8785       27.718330       1
       12697.743       849.63350       26.758214       1
       12720.505       609.74822       24.390142       1
       12743.267       629.78090       24.478072       1
       12766.029       454.38994       22.346351       1
       12788.791       408.47104       22.306264       1
       12811.553       302.71229       20.970884       1
       12834.315       288.95793       21.178340       1
       12857.077       266.17758       20.285842       1
       12879.839       255.69094       20.935726       1
       12902.601       275.04740       20.565318       1
       12925.363       264.38750       20.783800       1
       12948.125       265.94171       20.286824       1
       12970.887       246.90585       20.577764       1
       12993.650       249.16468       20.149784       1
       13016.412       248.49660       20.355762       1
       13039.174       239.71577       19.893038       1
       13061.936       280.69093       20.574847       1
       13084.698       251.06956       19.807588       1
       13107.460       260.46560       20.394439       1
       13130.222       256.97400       19.854636       1
       13152.984       207.29965       17.330950       1
       13175.746       269.40746       19.821150       1
       13198.508       236.61233       19.884688       1
       13221.270       243.15715       19.593900       1
       13244.032       258.23357       20.066463       1
       13266.794       241.37596       19.195602       1
       13289.556       251.26986       19.981804       1
       13312.318       263.44858       19.484628       1
       13335.080       263.99795       20.026043       1
       13357.842       261.31742       19.515004       1
       13380.604       259.19181       19.857179       1
       13403.366       255.17564       19.433853       1
       13426.128       245.22589       5013976.8       1
       13448.890       258.61211       19.399364       1
       13471.653       240.76087       19.544508       1
       13494.415       274.68434       19.389773       1
       13517.177       268.99540       19.733371       1
       13539.939       180.21800       16.516087       1
       13562.701       297.44715       20.060800       1
       13585.463       280.11142       19.384181       1
       13608.225       269.37532       19.684066       1
       13630.987       268.37492       19.356434       1
       13653.749       286.50253       19.900781       1
       13676.511       275.92387       19.471851       1
       13699.273       273.05006       19.787217       1
       13722.035       281.07936       19.409956       1
       13744.797       291.84211       20.155873       1
       13767.559       294.03031       19.453579       1
       13790.321       296.40472       20.009591       1
       13813.083       275.47197       19.325475       1
       13835.845       253.38449       20.601941       1
       13858.607       247.18235       18.828407       1
       13881.369       271.16513       20.699975       1
       13904.131       258.53013       19.290640       1
       13926.893       241.55432       19.443927       1
       13949.655       258.89426       19.312122       1
       13972.418       261.94026       19.635510       1
       13995.180       249.53898       18.719734       1
       14017.942       268.74452       19.092414       1
       14040.704       242.39630       18.756466       1
       14063.466       252.07939       19.213755       1
       14086.228       240.10169       18.864380       1
       14108.990       250.32850       19.238795       1
       14131.752       243.51303       18.892543       1
       14154.514       224.62684       18.887059       1
       14177.276       235.43990       18.715385       1
       14200.038       224.65348       18.927303       1
       14222.800       223.62329       18.718051       1
       14245.562       231.92725       19.025647       1
       14268.324       237.41689       18.696842       1
       14291.086       235.82755       18.986762       1
       14313.848       149.26070       15.730166       1
       14336.610       224.83070       18.847196       1
       14359.372       237.39271       18.609893       1
       14382.134       229.79064       18.823735       1
       14404.896       222.13569       18.449645       1
       14427.658       246.39209       18.969491       1
       14450.420       214.31896       17.936013       1
       14473.183       216.23729       18.492569       1
       14495.945       232.10160       18.357737       1
       14518.707       222.21190       18.772941       1
       14541.469       238.24140       18.641739       1
       14564.231       241.59077       18.927080       1
       14586.993       258.36507       18.658590       1
       14609.755       229.69105       18.621235       1
       14632.517       227.01299       18.464270       1
       14655.279       211.13200       18.539497       1
       14678.041       230.00157       18.486669       1
       14700.803       226.73499       18.899568       1
       14723.565       209.87892       18.447156       1
       14746.327       214.27416       18.822878       1
       14769.089       205.89068       18.397700       1
       14791.851       231.87654       19.018225       1
       14814.613       228.73232       18.493100       1
       14837.375       236.73359       18.991247       1
       14860.137       205.54455       18.293141       1
       14882.899       206.11909       18.672483       1
       14905.661       192.29202       18.166089       1
       14928.423       192.21480       18.501046       1
       14951.185       201.78202       18.004363       1
       14973.948       203.39030       18.738167       1
       14996.710       202.17951       18.109876       1
       15019.472       208.35181       18.720443       1
       15042.234       226.83580       18.186270       1
       15064.996       225.92252       18.916462       1
       15087.758       239.28942       18.181413       1
       15110.520       204.02566       18.600560       1
       15133.282       236.66741       18.849414       1
       15156.044       212.60228       18.666746       1
       15178.806       202.25363       18.067318       1
       15201.568       209.20482       18.660142       1
       15224.330       216.56606       18.102071       1
       15247.092       231.08170       18.743807       1
       15269.854       211.66172       17.986786       1
       15292.616       197.51274       18.581868       1
       15315.378       219.07059       18.164002       1
       15338.140       243.69020       18.876586       1
       15360.902       238.73501       18.306950       1
       15383.664       204.25401       18.698128       1
       15406.426       222.19171       18.047887       1
       15429.188       220.26545       18.728860       1
       15451.950       225.22232       18.314801       1
       15474.713       225.49237       18.763652       1
       15497.475       212.73901       18.094741       1
       15520.237       204.45791       18.652416       1
       15542.999       199.78046       18.065798       1
       15565.761       220.20702       18.806075       1
       15588.523       219.75857       18.284842       1
       15611.285       216.77317       18.804578       1
       15634.047       223.00810       18.279184       1
       15656.809       235.16702       18.823137       1
       15679.571       227.40608       18.269848       1
       15702.333       210.77850       18.618262       1
       15725.095       230.06549       18.284639       1
       15747.857       218.82958       18.701536       1
       15770.619       213.68284       18.079526       1
       15793.381       218.51725       18.594644       1
       15816.143       210.94578       18.036984       1
       15838.905       209.47435       18.432023       1
       15861.667       209.86408       17.963065       1
       15884.429       207.47899       18.477368       1
       15907.191       217.70861       18.150434       1
       15929.953       205.00424       18.434032       1
       15952.715       218.41783       18.191608       1
       15975.478       181.75666       18.276142       1
       15998.240       205.34751       18.074380       1
       16021.002       215.42563       18.424871       1
       16043.764       207.99544       18.114148       1
       16066.526       210.72618       18.439066       1
       16089.288       197.52593       18.029016       1
       16112.050       209.11614       18.589343       1
       16134.812       202.06497       18.140505       1
       16157.574       205.60524       18.481430       1
       16180.336       208.11220       18.233744       1
       16203.098       201.71849       18.588267       1
       16225.860       207.23287       18.148331       1
       16248.622       194.77297       19.522737       1
       16271.384       198.28131       18.255746       1
       16294.146       209.82177       18.712835       1
       16316.908       197.25403       18.222804       1
       16339.670       203.68805       18.702654       1
       16362.432       191.46915       18.234064       1
       16385.194       187.08118       18.602589       1
       16407.956       202.27720       18.345407       1
       16430.718       201.58757       18.761167       1
       16453.481       196.09644       18.333870       1
       16476.243       186.27027       18.752579       1
       16499.005       198.86266       18.506903       1
       16521.767       199.68480       19.164455       1
       16544.529       207.15458       19.388574       1
       16567.291       201.99831       19.937297       1
       16590.053       202.86949       19.830325       1
       16612.815       202.85793       21.080789       1
       16635.577       145.13628       18.285818       1
       16658.339       178.43480       23.389871       1
       16681.101       205.52052       22.919909       1
       16703.863       161.75222       21.738312       1
       16726.625       231.07397       25.550741       1
       16749.387       141.65353       24.198784       1
       16772.149       260.20600       28.868189       0
       16794.911       223.38322       31.142552       0
       16817.673       189.52402       32.175666       0
       16840.435       189.04105       34.816762       0
       16863.197       205.31022       36.146774       0
       16885.959       68.194080       33.555029       0
       16908.721       177.57519       40.152304       0
       16931.483       58.826499       42.142773       0
       16954.246       198.07822       44.634078       0
       16977.008       119.90795       47.097459       0
       16999.770       154.27678       49.732670       0
       17022.532       40.225704       52.312035       0
       17045.294       281.31488       55.200603       0
       17068.056      -9.4245309       16318477.       0
       17090.818       301.44689       61.263837       0
       17113.580       90.948672       66.115115       0
       17136.342       244.66038       69.770304       0
       17159.104       72.462633       76.150725       0
       17181.866       307.94853       80.306151       0
       17204.628      -59.907455       86.302318       0
       17227.390       662.95262       91.524936       0
       17250.152      -140.69650       97.057643       0
       17272.914      -345.55999       100.52372       0
