#WAVELENGTH FLUX ERROR MASK
       7507.7423      -3708.0614       430.56914       0
       7520.0310       8819.8718       455.06291       0
       7532.3197       7244.8835       365.30139       0
       7544.6083       1271.3941       374.98007       0
       7556.8970       634.78398       302.33079       0
       7569.1856      -15.866174       298.22383       0
       7581.4743       1490.7485       233.79793       0
       7593.7630      -2359.2414       239.09117       0
       7606.0516       2011.5293       188.84825       0
       7618.3403      -618.66603       202.36498       0
       7630.6289       986.86110       170.27195       0
       7642.9176       602.16864       173.52847       0
       7655.2062      -501.68403       150.54615       0
       7667.4949       353.39400       147.51878       0
       7679.7836      -35.778613       117.61840       0
       7692.0722       769.87646       123.02142       0
       7704.3609       46.439890       99.039291       0
       7716.6495       62.611063       105.06963       0
       7728.9382      -297.43652       89.297952       0
       7741.2268       799.18672       93.639327       0
       7753.5155      -156.76377       77.795278       0
       7765.8042       340.45294       85.602604       0
       7778.0928       555.75042       72.030853       0
       7790.3815       633.08688       79.208254       0
       7802.6701       587.83342       65.565849       0
       7814.9588       678.74393       71.269734       0
       7827.2475       364.34927       58.833505       0
       7839.5361       166.09226       67.468370       0
       7851.8248       486.21531       53.183917       0
       7864.1134       417.93729       57.661502       0
       7876.4021       301.79608       48.068581       0
       7888.6907       577.61808       53.258014       0
       7900.9794       480.58777       45.111994       0
       7913.2681       263.84562       50.210548       0
       7925.5567       196.26249       44.413812       0
       7937.8454       152.98125       52.035579       0
       7950.1340       246.52324       40.675200       0
       7962.4227       49.101399       45.322189       0
       7974.7113      -2.8484573       38.690235       0
       7987.0000       45.103009       43.669356       0
       7999.2887       97.758113       37.586293       0
       8011.5773       197.81416       42.096062       0
       8023.8660       182.52028       35.943108       0
       8036.1546       104.89918       40.542612       0
       8048.4433       285.54236       36.699802       0
       8060.7320       238.25051       39.889202       0
       8073.0206       255.69463       34.532265       0
       8085.3093       245.26390       39.198516       0
       8097.5979       254.52887       33.794042       0
       8109.8866       181.07773       38.237712       0
       8122.1752       170.13152       33.070174       0
       8134.4639       154.25696       37.309521       0
       8146.7526       299.42297       32.441162       0
       8159.0412       175.24836       39.260626       1
       8171.3299       240.74382       31.417245       1
       8183.6185       163.09980       35.788790       1
       8195.9072       178.28401       32.044127       1
       8208.1959       212.79415       35.063709       1
       8220.4845       29.285730       30.103159       1
       8232.7732       142.21550       33.863132       1
       8245.0618       177.35955       29.398552       1
       8257.3505       145.66104       33.320799       1
       8269.6391       132.83698       29.288083       1
       8281.9278       180.42686       32.352975       1
       8294.2165       123.11318       28.620108       1
       8306.5051       142.03444       31.436477       1
       8318.7938       76.998331       27.212895       1
       8331.0824       145.76942       31.131440       1
       8343.3711       120.99126       26.601560       1
       8355.6597       183.29052       30.678519       1
       8367.9484       169.57443       26.349580       1
       8380.2371       90.210760       29.678186       1
       8392.5257       100.40876       25.991187       1
       8404.8144       115.02263       30.127716       1
       8417.1030       108.56316       27.539737       1
       8429.3917       168.37617       29.365826       1
       8441.6804       116.20682       25.376690       1
       8453.9690       201.93007       30.874158       1
       8466.2577       97.694251       24.868753       1
       8478.5463       106.97189       28.245425       1
       8490.8350       187.28963       25.651597       1
       8503.1236       183.69924       28.339463       1
       8515.4123       110.22602       24.212744       1
       8527.7010       178.52905       27.839130       1
       8539.9896       162.52029       24.141471       1
       8552.2783       147.15045       27.442642       1
       8564.5669       129.89884       23.961575       1
       8576.8556       141.37149       27.372949       1
       8589.1442       94.393330       23.832112       1
       8601.4329       86.356342       27.348325       1
       8613.7216       123.02795       23.830719       1
       8626.0102       105.70986       29.382979       1
       8638.2989       73.556957       23.655722       1
       8650.5875       105.86850       27.183563       1
       8662.8762       126.19349       23.388069       1
       8675.1649       135.83715       26.806113       1
       8687.4535       148.48508       23.038864       1
       8699.7422       116.15959       26.254624       1
       8712.0308       113.75302       22.654391       1
       8724.3195       131.33615       25.834094       1
       8736.6081       163.48197       22.320223       1
       8748.8968       125.29233       25.429629       1
       8761.1855       104.53842       22.086942       1
       8773.4741       84.361706       25.210117       1
       8785.7628       90.485214       21.918173       1
       8798.0514       123.62060       24.874855       1
       8810.3401       107.28945       21.462146       1
       8822.6288       112.60846       24.771928       1
       8834.9174       129.36620       21.562424       1
       8847.2061       142.65927       24.502304       1
       8859.4947       135.80471       21.152394       1
       8871.7834       141.66748       24.225622       1
       8884.0720       130.47869       21.129281       1
       8896.3607       95.159117       24.183961       1
       8908.6494       96.275903       20.822662       1
       8920.9380       119.52415       23.734686       1
       8933.2267       129.24906       21.374627       1
       8945.5153       129.30376       23.560805       1
       8957.8040       179.34866       21.616116       1
       8970.0926       170.24511       23.937434       1
       8982.3813       146.70369       20.101053       1
       8994.6700       131.71959       27.200061       1
       9006.9586       79.681540       21.206453       1
       9019.2473       103.84245       25.364013       1
       9031.5359       153.52877       20.680328       1
       9043.8246       138.29828       24.830896       1
       9056.1133       104.38052       19.912147       1
       9068.4019       89.960634       22.942241       1
       9080.6906       121.50531       20.025229       1
       9092.9792       102.47580       22.698851       1
       9105.2679       103.01847       19.589286       1
       9117.5565       93.193645       22.565917       1
       9129.8452       148.86240       19.497020       1
       9142.1339       152.08247       22.256252       1
       9154.4225       96.786666       19.323861       1
       9166.7112       113.93568       22.312601       1
       9178.9998       113.59829       19.019090       1
       9191.2885       147.36041       21.933274       1
       9203.5772       113.57571       19.037947       1
       9215.8658       80.080666       21.631785       1
       9228.1545       154.16322       18.898539       1
       9240.4431       108.77155       21.565420       1
       9252.7318       106.04530       19.282222       1
       9265.0204       100.80484       21.458739       1
       9277.3091       139.11839       18.773020       1
       9289.5978       102.15343       21.252637       1
       9301.8864       138.23273       18.562480       1
       9314.1751       118.58345       21.067657       1
       9326.4637       133.34204       19.382781       1
       9338.7524       118.10193       21.183796       1
       9351.0410       133.99233       18.261232       1
       9363.3297       141.52438       20.997106       1
       9375.6184       150.59127       18.405775       1
       9387.9070       100.61065       21.262581       1
       9400.1957       118.71806       18.278643       1
       9412.4843       128.03392       20.815346       1
       9424.7730       157.81772       18.193944       1
       9437.0617       124.91010       20.712053       1
       9449.3503       134.35802       18.085934       1
       9461.6390       127.37584       20.653077       1
       9473.9276       116.11037       17.751109       1
       9486.2163       114.38742       20.605398       1
       9498.5049       132.36173       18.323160       1
       9510.7936       127.10543       22.116198       1
       9523.0823       126.68463       17.832759       1
       9535.3709       148.88172       22.046090       1
       9547.6596       130.76280       18.487198       1
       9559.9482       113.12385       18.468533       1
       9572.2369       119.28528       18.539794       1
       9584.5255       127.35533       20.123730       1
       9596.8142       161.56421       18.311910       1
       9609.1029       143.03694       19.992333       1
       9621.3915       124.78312       17.440637       1
       9633.6802       136.61491       20.208940       1
       9645.9688       161.16452       17.336657       1
       9658.2575       153.00344       20.220803       1
       9670.5462       131.31209       17.210525       1
       9682.8348       137.87195       19.772255       1
       9695.1235       117.00097       18.307821       1
       9707.4121       136.67987       21.669712       1
       9719.7008       108.94977       17.257507       1
       9731.9894       152.39434       19.972002       1
       9744.2781       137.41595       17.720942       1
       9756.5668       138.14047       19.636417       1
       9768.8554       131.54132       17.551570       1
       9781.1441       110.06396       19.455460       1
       9793.4327       164.62282       20.252295       1
       9805.7214       130.27792       19.325221       1
       9818.0101       113.22572       17.551395       1
       9830.2987       170.30550       20.906505       1
       9842.5874       153.51274       16.812309       1
       9854.8760       139.73030       19.285849       1
       9867.1647       117.87445       17.391939       1
       9879.4533       101.06895       19.295241       1
       9891.7420       126.29853       16.925937       1
       9904.0307       109.71930       19.208162       1
       9916.3193       159.79805       16.768627       1
       9928.6080       155.32602       19.247712       1
       9940.8966       129.77682       16.627882       1
       9953.1853       153.24098       19.235519       1
       9965.4739       149.10737       16.541124       1
       9977.7626       156.15252       19.057434       1
       9990.0513       121.88421       18.700306       1
       10002.340       158.92697       20.398840       1
       10014.629       145.60865       16.981504       1
       10026.917       114.94265       18.800828       1
       10039.206       139.98695       16.306658       1
       10051.495       132.74191       18.610561       1
       10063.783       121.39873       16.957814       1
       10076.072       139.99816       18.682324       1
       10088.361       108.93555       16.358681       1
       10100.649       131.71383       18.632075       1
       10112.938       122.24169       16.276882       1
       10125.227       119.55233       18.507506       1
       10137.515       131.32741       16.320822       1
       10149.804       123.04340       18.937965       1
       10162.092       140.71000       16.390127       1
       10174.381       146.79808       18.617150       1
       10186.670       151.14454       16.659901       1
       10198.958       151.35977       18.446801       1
       10211.247       139.80183       16.067466       1
       10223.536       127.51353       18.488877       1
       10235.824       127.47030       16.644691       1
       10248.113       131.85140       18.262606       1
       10260.402       115.91398       15.954382       1
       10272.690       134.18145       18.282576       1
       10284.979       94.856552       16.483850       1
       10297.268       132.15176       19.578444       1
       10309.556       113.89406       16.343865       1
       10321.845       128.02147       18.104748       1
       10334.134       155.97839       15.672879       1
       10346.422       155.88841       17.924576       1
       10358.711       125.94791       16.438482       1
       10371.000       135.59006       19.617639       1
       10383.288       161.76122       15.676358       1
       10395.577       152.66777       18.092433       1
       10407.866       115.92918       15.634891       1
       10420.154       140.48588       18.057174       1
       10432.443       133.95908       15.733191       1
       10444.732       131.77296       17.828002       1
       10457.020       113.57086       15.570335       1
       10469.309       108.65125       17.859275       1
       10481.598       164.87370       15.679998       1
       10493.886       140.67434       17.944039       1
       10506.175       129.34732       15.577524       1
       10518.464       116.08027       19.305261       1
       10530.752       122.22539       15.637818       1
       10543.041       131.12681       18.135902       1
       10555.330       129.58056       16.168607       1
       10567.618       114.50040       19.224325       1
       10579.907       111.16070       16.095660       1
       10592.196       122.71911       19.486374       1
       10604.484       148.92959       16.259991       1
       10616.773       138.37966       18.051510       1
       10629.061       120.53105       15.471706       1
       10641.350       115.75670       17.820148       1
       10653.639       121.91798       15.472004       1
       10665.927       120.74939       17.561135       1
       10678.216       145.73026       15.371189       1
       10690.505       137.12971       17.547604       1
       10702.793       149.10381       15.321833       1
       10715.082       133.42797       17.580798       1
       10727.371       114.68975       15.752982       1
       10739.659       116.47744       19.042579       1
       10751.948       105.54052       15.825981       1
       10764.237       127.31334       18.953557       1
       10776.525       129.84700       16.447406       1
       10788.814       87.585435       17.462645       1
       10801.103       95.543901       15.252059       1
       10813.391       120.45627       17.435362       1
       10825.680       145.42406       15.345680       1
       10837.969       125.32451       17.455473       1
       10850.257       109.28511       15.153921       1
       10862.546       117.64431       17.446573       1
       10874.835       133.86712       16.049209       1
       10887.123       132.67545       17.319413       1
       10899.412       120.59414       15.584388       1
       10911.701       112.00738       17.456243       1
       10923.989       144.93964       16.232801       1
       10936.278       132.47584       17.476594       1
       10948.567       132.74754       15.151508       1
       10960.855       131.75945       17.421963       1
       10973.144       133.45365       15.868820       1
       10985.433       115.53813       20.177387       1
       10997.721       132.86723       15.149655       1
       11010.010       127.74481       17.339391       1
       11022.299       143.79332       15.697873       1
       11034.587       126.53001       17.464666       1
       11046.876       106.42925       15.846383       1
       11059.165       148.91984       17.421746       1
       11071.453       139.85586       15.494666       1
       11083.742       106.18783       17.387911       1
       11096.030       138.87892       15.682947       1
       11108.319       115.99327       18.820344       1
       11120.608       130.05600       15.089639       1
       11132.896       121.77265       17.378403       1
       11145.185       138.25748       15.176440       1
       11157.474       140.73217       17.473218       1
       11169.762       131.85526       15.121815       1
       11182.051       137.74115       17.403263       1
       11194.340       151.41088       15.457712       1
       11206.628       111.05123       17.294131       0
       11218.917       131.29645       15.226173       0
       11231.206       128.46444       17.457176       0
       11243.494       123.52268       15.153824       0
       11255.783       121.37434       17.361515       0
       11268.072       129.45105       15.149018       0
       11280.360       121.06315       17.381288       0
       11292.649       123.29894       15.660243       0
       11304.938       125.86368       17.449034       0
       11317.226       119.79621       15.129586       0
       11329.515       139.30036       17.386256       0
       11341.804       117.68381       15.105422       0
       11354.092       113.73065       17.441556       0
       11366.381       115.05228       15.467877       0
       11378.670       108.24661       18.054719       0
       11390.958       117.31543       16.146418       0
       11403.247       118.05372       18.917295       0
       11415.536       131.62814       17.348285       0
       11427.824       147.64241       20.691429       0
       11440.113       109.24487       19.644270       0
       11452.402       96.575764       23.044877       0
       11464.690       105.40804       21.922774       0
       11476.979       131.91067       26.498800       0
       11489.268       137.34270       24.187832       0
       11501.556       219.48496       29.365766       0
       11513.845       58.241759       26.786723       0
       11526.134       118.72875       32.356589       0
       11538.422       141.77436       30.812644       0
       11550.711       163.03649       35.826952       0
       11562.999       150.49904       34.974913       0
       11575.288       159.47817       44.773193       0
       11587.577       83.281696       40.484830       0
       11599.865       217.32615       49.415639       0
       11612.154       114.47201       51.551028       0
       11624.443      -88.489783       61.249293       0
       11636.731       172.87656       60.621593       0
       11649.020      -849.83855       81.356719       0
       11661.309       163.09772       72.662943       0
       11673.597       536.82359       90.956360       0
       11685.886       436.64802       99.060124       0
       11698.175       160.90811       112.60500       0
       11710.463       341.15258       111.37357       0
       11722.752       1682.1221       146.76343       0
       11735.041      -1508.7759       156.05720       0
       11747.329      -2511.6296       191.55052       0
       11759.618      -3420.9436       185.63764       0
       11771.907       506.05892       230.00858       0
       11784.195       1553.1159       207.39922       0
       11796.484       297.88903       235.92986       0
       11808.773       125.50858       217.56969       0
       11821.061      -1392.3259       243.07624       0
       11833.350      -2538.0014       209.97184       0
       11845.639      -104.24496       250.74214       0
       11857.927       3158.5025       215.02770       0
       11870.216      -1327.2571       266.33345       0
       11882.505      -5927.5740       249.51548       0
       11894.793      -3327.1231       333.62623       0
       11907.082       13258.174       306.17051       0
       11919.371      -5190.3953       361.70138       0
