#WAVELENGTH FLUX ERROR MASK
       7496.4791       12676.201       18351.484       0
       7508.5798       8428.4499       12125.876       0
       7520.6806      -2716.2193       13021.768       0
       7532.7814      -3781.3109       8747.5693       0
       7544.8821      -821.46361       8998.7876       0
       7556.9829      -888.20690       5646.1772       0
       7569.0836      -906.04934       5688.4533       0
       7581.1844       299.77524       3568.0985       0
       7593.2852       136.07430       3696.1134       0
       7605.3859       354.14815       2454.0796       0
       7617.4867      -1587.3534       2586.7043       0
       7629.5875       549.72288       1796.8698       0
       7641.6882      -586.43187       1947.4791       0
       7653.7890       952.26862       1340.6057       0
       7665.8898      -572.45361       1422.1383       0
       7677.9905       1024.8755       945.59147       0
       7690.0913       513.51875       1000.8762       0
       7702.1920       564.52481       664.24155       0
       7714.2928       239.15101       721.67722       0
       7726.3936       40.281685       495.57790       0
       7738.4943       40.437381       568.90138       0
       7750.5951       512.49114       410.16164       0
       7762.6959       92.745136       477.70375       0
       7774.7966       221.86589       347.37285       0
       7786.8974       500.53737       408.97094       0
       7798.9982      -329.38337       288.76497       0
       7811.0989      -298.73451       330.19928       0
       7823.1997       398.12707       237.75681       0
       7835.3004      -178.78926       268.28122       0
       7847.4012       195.15132       192.37532       0
       7859.5020       108.56971       157.14561       0
       7871.6027       32.857022       157.12164       0
       7883.7035       103.52862       184.31630       0
       7895.8043       159.06569       136.33117       0
       7907.9050       79.220368       162.09583       0
       7920.0058       155.95758       121.70635       0
       7932.1066      -12.420818       144.82781       0
       7944.2073       248.33027       124.87318       0
       7956.3081       48.645318       132.26449       0
       7968.4088       72.052968       101.39226       0
       7980.5096       243.97594       122.73906       0
       7992.6104       137.60908       93.962668       0
       8004.7111       96.590477       114.97635       0
       8016.8119       178.48135       92.443744       0
       8028.9127       127.91030       107.35968       0
       8041.0134       170.97887       84.018761       0
       8053.1142       40.238490       101.52361       0
       8065.2150       124.92717       80.976690       0
       8077.3157       70.826267       99.765915       0
       8089.4165       88.973969       77.786408       0
       8101.5172       105.56213       96.483207       0
       8113.6180       101.65373       75.243621       0
       8125.7188       148.85096       93.754718       0
       8137.8195       149.92422       81.351799       0
       8149.9203       218.34635       90.472837       0
       8162.0211       68.910205       69.873640       1
       8174.1218       86.407828       86.711759       1
       8186.2226       87.110863       67.463871       1
       8198.3234       106.33822       83.742737       1
       8210.4241       104.50282       65.011482       1
       8222.5249       8.1067450       78.513475       1
       8234.6256       28.755870       61.319667       1
       8246.7264      -6.9716645       84.501118       1
       8258.8272       138.04628       68.098419       1
       8270.9279       123.48694       80.431211       1
       8283.0287       61.243361       90.723428       1
       8295.1295       45.500353       75.024690       1
       8307.2302       87.255537       61.863517       1
       8319.3310       53.836004       73.262711       1
       8331.4318       109.53745       59.675447       1
       8343.5325       23.057720       71.410759       1
       8355.6333       75.872700       57.989822       1
       8367.7340       108.76759       70.110882       1
       8379.8348       41.740586       56.098643       1
       8391.9356       67.811631       68.169328       1
       8404.0363       74.877862       54.727862       1
       8416.1371       25.686353       66.108494       1
       8428.2379       32.366739       52.922570       1
       8440.3386       75.532073       64.493462       1
       8452.4394       103.20187       51.671683       1
       8464.5402       64.505846       62.173104       1
       8476.6409       61.772030       49.879203       1
       8488.7417       49.101691       60.574778       1
       8500.8424       99.097686       48.688296       1
       8512.9432       17.928478       58.510874       1
       8525.0440       6.7201411       47.339153       1
       8537.1447       71.231136       58.065802       1
       8549.2455       68.972241       46.930815       1
       8561.3463       136.54591       57.986989       1
       8573.4470       38.455296       50.506835       1
       8585.5478       153.40041       57.382480       1
       8597.6486       39.762378       45.913054       1
       8609.7493       67.356615       55.732247       1
       8621.8501       74.371845       46.068656       1
       8633.9508       68.285979       55.240524       1
       8646.0516       90.145407       45.444885       1
       8658.1524       90.405211       54.962160       1
       8670.2531       24.171645       44.069363       1
       8682.3539       97.051833       31460563.       1
       8694.4547       58.155023       43.070803       1
       8706.5554       89.155601       51.804658       1
       8718.6562       76.056330       41.664579       1
       8730.7570       53.523547       49.654285       1
       8742.8577       118.43545       40.517803       1
       8754.9585       98.191911       48.360436       1
       8767.0592       150.98193       39.669908       1
       8779.1600       122.70824       48.198839       1
       8791.2608       107.30814       38.618843       1
       8803.3615       135.84175       47.319604       1
       8815.4623       62.685274       38.110060       1
       8827.5631       65.141698       45.889569       1
       8839.6638       87.268277       37.121782       1
       8851.7646       131.26463       45.515652       1
       8863.8654       124.56039       36.277371       1
       8875.9661       82.477340       44.226802       1
       8888.0669       81.721176       35.588894       1
       8900.1676       128.25752       43.714347       1
       8912.2684       94.424425       35.242077       1
       8924.3692       100.98196       42.742417       1
       8936.4699       141.70258       35.097225       1
       8948.5707       117.27406       41.762961       1
       8960.6715       125.00143       34.306401       1
       8972.7722       106.85763       41.128893       1
       8984.8730       114.49389       33.481206       1
       8996.9737       144.36468       40.575563       1
       9009.0745       127.76118       37.137620       1
       9021.1753       98.048840       40.345340       1
       9033.2760       114.99467       32.971472       1
       9045.3768       138.15425       40.091190       1
       9057.4776       90.238310       32.427435       1
       9069.5783       135.42121       39.704115       1
       9081.6791       115.79631       32.227208       1
       9093.7799       109.55695       38.677145       1
       9105.8806       133.38484       31.794040       1
       9117.9814       149.84215       38.465068       1
       9130.0821       134.33948       31.072559       1
       9142.1829       159.85101       37.747846       1
       9154.2837       144.54628       30.417695       1
       9166.3844       119.25595       36.740689       1
       9178.4852       122.57329       29.790914       1
       9190.5860       125.03558       20784714.       1
       9202.6867       145.67039       25.521075       1
       9214.7875       138.21552       31.937828       1
       9226.8883       151.63592       25.258555       1
       9238.9890       138.57346       31.333363       1
       9251.0898       120.29891       24.766186       1
       9263.1905       115.10043       31.066426       1
       9275.2913       110.51135       24.357290       1
       9287.3921       130.06337       30.725561       1
       9299.4928       143.36654       34.063546       1
       9311.5936       152.88459       30.778900       1
       9323.6944       127.63418       24.061053       1
       9335.7951       166.27965       30.508072       1
       9347.8959       132.34574       23.771201       1
       9359.9967       116.01377       29.947951       1
       9372.0974       129.72890       23.583620       1
       9384.1982       111.44054       29.669474       1
       9396.2989       137.00928       23.432660       1
       9408.3997       134.78052       29.385669       1
       9420.5005       152.76699       23.120920       1
       9432.6012       196.11194       29.565946       1
       9444.7020       177.45595       23.220969       1
       9456.8028       179.69200       28.832051       1
       9468.9035       175.02393       22.775201       1
       9481.0043       194.64509       28.744800       1
       9493.1051       153.91731       31.632060       1
       9505.2058       209.44280       28.321349       1
       9517.3066       189.00744       22.413478       1
       9529.4073       202.12060       28.121913       1
       9541.5081       183.14194       22.480168       1
       9553.6089       183.51079       27.686835       1
       9565.7096       200.01693       22.038453       1
       9577.8104       206.52165       27.909294       1
       9589.9112       176.68723       21.750433       1
       9602.0119       186.44190       27.151684       1
       9614.1127       174.19002       21.521125       1
       9626.2135       170.97702       27.057741       1
       9638.3142       164.95075       21.210121       1
       9650.4150       193.64239       26.858933       1
       9662.5157       162.43400       21.102650       1
       9674.6165       205.80668       26.916975       1
       9686.7173       157.80198       20.915878       1
       9698.8180       158.61598       26.305457       1
       9710.9188       148.32143       20.634287       1
       9723.0196       169.86489       26.186508       1
       9735.1203       146.18468       20.458994       1
       9747.2211       211.99176       26.255823       1
       9759.3219       191.28353       20.419135       1
       9771.4226       149.94314       25.193836       1
       9783.5234       162.75449       19.928600       1
       9795.6241       173.36215       25.517503       1
       9807.7249       186.73826       20.134377       1
       9819.8257       189.98873       25.609172       1
       9831.9264       189.65445       20.099781       1
       9844.0272       183.59163       25.422785       1
       9856.1280       163.14427       19.917945       1
       9868.2287       188.58511       25.327137       1
       9880.3295       179.88855       19.833275       1
       9892.4303       87.801280       17.852515       1
       9904.5310       191.54204       19.897233       1
       9916.6318       190.20921       25.137353       1
       9928.7325       165.78258       19.597516       1
       9940.8333       172.30886       24.691113       1
       9952.9341       174.49573       19.541991       1
       9965.0348       212.29528       24.955444       1
       9977.1356       171.99227       19.271750       1
       9989.2364       158.65685       24.278621       1
       10001.337       175.37836       19.109429       1
       10013.438       160.26134       23.867114       1
       10025.539       183.06977       18.913484       1
       10037.639       170.28744       23.827278       1
       10049.740       171.17107       18.724894       1
       10061.841       192.67532       23.810060       1
       10073.942       199.31088       18.925910       1
       10086.042       168.01134       23.711318       1
       10098.143       184.56659       18.871416       1
       10110.244       176.23445       23.705095       1
       10122.345       178.98625       18.692290       1
       10134.446       187.33332       23.637050       1
       10146.546       162.17221       21.211497       1
       10158.647       177.37432       26.074634       1
       10170.748       150.86664       20.940735       1
       10182.849       162.42828       25.754115       1
       10194.949       175.54050       21.149931       1
       10207.050       155.28634       26.956028       1
       10219.151       150.59379       20.732034       1
       10231.252       186.22327       27.139978       1
       10243.352       163.89615       20.577667       1
       10255.453       154.03144       25.044958       1
       10267.554       161.09696       20.288518       1
       10279.655       169.12070       24.958690       1
       10291.755       157.51633       20.239529       1
       10303.856       163.30168       24.700149       1
       10315.957       196.23956       28.597480       1
       10328.058       168.91196       24.983392       1
       10340.159       185.41121       20.098578       1
       10352.259       164.53622       24.439939       1
       10364.360       175.91207       20.015185       1
       10376.461       176.52008       24.450808       1
       10388.562       182.84958       20.033082       1
       10400.662       186.31576       24.547029       1
       10412.763       156.29546       19.776187       1
       10424.864       189.66145       24.402680       1
       10436.965       187.77850       19.837401       1
       10449.065       146.40243       24.011026       1
       10461.166       161.27732       19.410821       1
       10473.267       142.69218       23.868679       1
       10485.368       206.06207       19.885807       1
       10497.468       186.87306       24.169145       1
       10509.569       182.46733       19.794874       1
       10521.670       148.73566       23.813406       1
       10533.771       201.22586       19.953805       1
       10545.871       188.59307       24.058184       1
       10557.972       179.74842       19.759871       1
       10570.073       89.420203       17.166456       1
       10582.174       164.66199       19.417908       1
       10594.275       203.12022       24.109479       1
       10606.375       191.24891       19.684683       1
       10618.476       212.54429       24.068864       1
       10630.577       190.39977       19.383295       1
       10642.678       212.77609       23.817748       1
       10654.778       179.54408       19.119352       1
       10666.879       174.07096       23.249246       1
       10678.980       169.20720       18.958276       1
       10691.081       175.30322       23.311978       1
       10703.181       197.22820       19.160675       1
       10715.282       226.74306       23.631320       1
       10727.383       185.91219       19.063501       1
       10739.484       199.19480       23.428904       1
       10751.584       197.39005       19.015911       1
       10763.685       172.81397       23.136067       1
       10775.786       197.88682       19.060720       1
       10787.887       209.20297       23.487641       1
       10799.988       206.00415       19.078595       1
       10812.088       192.43818       22.895673       1
       10824.189       193.44075       18.939768       1
       10836.290       202.33916       23.330902       1
       10848.391       179.54155       18.714443       1
       10860.491       193.09812       22.876419       1
       10872.592       176.18751       18.555290       1
       10884.693       178.96720       22.558296       1
       10896.794       183.42148       18.518659       1
       10908.894       182.74529       22.221304       1
       10920.995       175.55850       18.427267       1
       10933.096       171.03479       22.385961       1
       10945.197       198.89912       20.722158       1
       10957.297       91.001647       16.164806       1
       10969.398       212.41036       20.925963       1
       10981.499       189.51230       22.781751       1
       10993.600       180.23942       18.443097       1
       11005.701       186.26386       22.742596       1
       11017.801       185.53469       18.475059       1
       11029.902       72.111366       15.859019       1
       11042.003       197.35776       18.486612       1
       11054.104       196.85102       22.830348       1
       11066.204       203.85024       18.501426       1
       11078.305       178.29007       22.515674       1
       11090.406       196.68359       18.521420       1
       11102.507       209.05609       20.516484       1
       11114.607       179.68042       15.962479       1
       11126.708       234.88203       20.778768       1
       11138.809       188.55060       16.066352       1
       11150.910       177.15843       20.209887       1
       11163.010       187.11346       16.049730       1
       11175.111       178.90907       20.299605       1
       11187.212       189.04141       16.071780       1
       11199.313       204.72484       20.539149       1
       11211.413       190.69968       15.970964       0
       11223.514       106.02350       14.477771       0
       11235.615       183.51476       16.037007       0
       11247.716       210.43334       20.430605       0
       11259.817       177.29637       15.951620       0
       11271.917       203.40442       20.265418       0
       11284.018       204.78620       16.060060       0
       11296.119       199.83751       20.334405       0
       11308.220       189.44620       15.871071       0
       11320.320       215.54532       20.782839       0
       11332.421       215.96643       16.704775       0
       11344.522       199.01598       21.483251       0
       11356.623       199.20734       17.819996       0
       11368.723       161.48360       23.364447       0
       11380.824       192.84820       19.937230       0
       11392.925       204.37046       27.463815       0
       11405.026       215.25087       23.822320       0
       11417.126       176.64925       33.199681       0
       11429.227       229.02430       29.644406       0
       11441.328       194.87379       42.585098       0
       11453.429       195.58793       38.220225       0
       11465.530       231.57718       54.379221       0
       11477.630       234.23996       47.844645       0
       11489.731       186.88639       66.645929       0
       11501.832       168.48664       57.868446       0
       11513.933       150.64327       79.983821       0
       11526.033       213.39437       72.200181       0
       11538.134       298.64933       105.45221       0
       11550.235       276.69471       96.787324       0
       11562.336       337.14296       147.06956       0
       11574.436       229.71566       141.16049       0
       11586.537       761.01181       222.66867       0
       11598.638     -0.18544339       216.49623       0
       11610.739       618.85427       331.21019       0
       11622.839       188.72576       337.59967       0
       11634.940       790.81208       503.48023       0
       11647.041      -65.123101       471.59083       0
       11659.142       113.77525       730.94559       0
       11671.242       353.70094       744.59252       0
       11683.343       709.22661       1233.5887       0
       11695.444       799.82817       1254.6416       0
       11707.545       1686.9584       2072.4642       0
       11719.646       2036.2123       2163.7414       0
       11731.746      -2542.1932       3333.5622       0
       11743.847       2131.6366       2913.1088       0
       11755.948       4083.2941       3839.3828       0
       11768.049      -1378.2417       2951.8421       0
       11780.149       852.38710       3660.2477       0
       11792.250      -1627.5051       2798.1493       0
       11804.351       1006.0935       3643.2521       0
       11816.452       198.43187       3051.3171       0
       11828.552       1037.5018       4301.2233       0
       11840.653       596.94337       3938.0686       0
