#WAVELENGTH FLUX ERROR MASK
       7499.7019       2339.9896       22534.044       0
       7511.8524       10946.705       20822.194       0
       7524.0029       6043.1700       17079.980       0
       7536.1535      -1691.9326       10872.609       0
       7548.3040       884.62179       11632.010       0
       7560.4545       2397.9993       6911.4200       0
       7572.6050       3328.8413       7326.7583       0
       7584.7556      -398.01727       4394.1726       0
       7596.9061      -8472.9954       5922.0977       0
       7609.0566      -664.09354       3364.8345       0
       7621.2071      -2478.7924       3199.9226       0
       7633.3577      -2348.6342       2220.1199       0
       7645.5082      -435.17479       2403.8431       0
       7657.6587       528.08720       1651.9275       0
       7669.8092       1615.4162       1739.9841       0
       7681.9598       74.081338       1153.2532       0
       7694.1103       22.777995       1202.9067       0
       7706.2608      -272.47661       802.95538       0
       7718.4113       137.97034       886.85679       0
       7730.5619      -198.24622       624.75671       0
       7742.7124      -408.30091       706.55540       0
       7754.8629       229.85576       519.26835       0
       7767.0134      -239.16389       596.33546       0
       7779.1640      -7.6165824       438.26988       0
       7791.3145      -200.27197       502.37162       0
       7803.4650       25.680535       365.25223       0
       7815.6155       618.33785       418.20975       0
       7827.7661       110.69302       295.27365       0
       7839.9166       359.17421       334.43670       0
       7852.0671      -150.07619       237.78875       0
       7864.2176       111.23668       272.11127       0
       7876.3682       114.85445       200.47379       0
       7888.5187       141.30491       230.64967       0
       7900.6692       186.10785       173.70202       0
       7912.8197      -196.57149   1.1112520e+08       0
       7924.9703       113.04870       154.73659       0
       7937.1208       25.221961       184.44280       0
       7949.2713       126.56825       141.29457       0
       7961.4219      -70.618408       166.74551       0
       7973.5724       299.33550       129.37877       0
       7985.7229       92.674947       154.13772       0
       7997.8734       58.657591       118.92562       0
       8010.0240       40.642180       143.72894       0
       8022.1745       86.200838       112.92063       0
       8034.3250      -127.96311       134.03672       0
       8046.4755       148.78964       108.03189       0
       8058.6261       213.70338       133.29091       0
       8070.7766      -16.662937       142.38518       0
       8082.9271       51.775892       83.190696       0
       8095.0776       102.04721       111.00949       0
       8107.2282       159.51344       124.14343       0
       8119.3787      -8.0131815       96.014699       0
       8131.5292       171.48674       119.00056       0
       8143.6797       52.024667       92.907800       0
       8155.8303       80.710545       114.42543       1
       8167.9808       80.316147       89.582079       1
       8180.1313       126.84469       110.96096       1
       8192.2818       10.072375       86.310977       1
       8204.4324       28.825572       106.57010       1
       8216.5829      -45.245016       82.198289       1
       8228.7334       138.66824       102.59595       1
       8240.8839       28.493446       78.935264       1
       8253.0345       65.507699       96.845743       1
       8265.1850       47.888556       82.917307       1
       8277.3355       99.028123       92.548108       1
       8289.4860       34.874559       71.632333       1
       8301.6366       26.564425       87.595738       1
       8313.7871       115.84765       69.415899       1
       8325.9376       105.71517       84.894900       1
       8338.0881       159.46834       67.206156       1
       8350.2387       21.204853       81.744684       1
       8362.3892       115.84202       64.959218       1
       8374.5397       21.139478       79.398557       1
       8386.6903       96.218160       63.394499       1
       8398.8408       9.6968162       77.299834       1
       8410.9913       62.204561       61.180937       1
       8423.1418       71.501462       75.672457       1
       8435.2924       59.067073       59.391624       1
       8447.4429       53.533127       73.054834       1
       8459.5934       76.988723       57.907656       1
       8471.7439       61.094958       70.790870       1
       8483.8945       40.675689       55.838204       1
       8496.0450       43.836418       68.559833       1
       8508.1955       92.992044       54.708169       1
       8520.3460       37.460703       67.374653       1
       8532.4966       65.903437       53.586468       1
       8544.6471       101.46148       65.559409       1
       8556.7976       90.652554       53.078937       1
       8568.9481       23.731202       65.403319       1
       8581.0987       4.2590537       70.927078       1
       8593.2492       75.653627       64.882001       1
       8605.3997       93.297425       52.329658       1
       8617.5502      -33.537175       63.874830       1
       8629.7008       38.681596       51.193858       1
       8641.8513       1.4261481       42.316718       1
       8654.0018       44.998694       50.876246       1
       8666.1523       90.107673       63.301767       1
       8678.3029       6.0621842       49.163806       1
       8690.4534       56.058161       61.023773       1
       8702.6039       29.749367       47.079095       1
       8714.7544       57.099317       58.381051       1
       8726.9050       30.169703       45.705430       1
       8739.0555       119.52425       57.369086       1
       8751.2060       72.591114       44.846374       1
       8763.3565      -2.5131038       54.891636       1
       8775.5071       70.333282       43.824959       1
       8787.6576       11.296566       53.722397       1
       8799.8081       115.20233       43.362853       1
       8811.9587       30.726185       53.392368       1
       8824.1092       88.825022       42.457291       1
       8836.2597       75.419175       52.687406       1
       8848.4102       70.198267       41.418855       1
       8860.5608       46.927165       51.268877       1
       8872.7113       84.185266       40.587848       1
       8884.8618       97.532708       50.448398       1
       8897.0123       56.515674       39.707786       1
       8909.1629       50.163658       49.479404       1
       8921.3134       121.74096       39.785674       1
       8933.4639       125.23221       49.298732       1
       8945.6144       37.340880       38.311976       1
       8957.7650       99.167640       47.661497       1
       8969.9155       71.479404       37.862781       1
       8982.0660       51.766079       46.807648       1
       8994.2165       93.948428       37.291938       1
       9006.3671       72.623874       46.154606       1
       9018.5176       116.25219       37.278695       1
       9030.6681       122.29657       46.116292       1
       9042.8186       84.436425       36.458211       1
       9054.9692       62.979028       45.369245       1
       9067.1197       109.39324       36.474505       1
       9079.2702       159.86610       45.874816       1
       9091.4207       97.453494       35.694122       1
       9103.5713       146.40463       44.858422       1
       9115.7218       124.56359       35.341818       1
       9127.8723       94.385653       43.425010       1
       9140.0228       111.09609       34.273298       1
       9152.1734       127.17236       42.718331       1
       9164.3239       85.888592       33.501424       1
       9176.4744       88.049414       41.925879       1
       9188.6249       89.180970       36.656390       1
       9200.7755       40.033546       30.383852       1
       9212.9260       109.02150       32.652386       1
       9225.0765       91.541689       40.015055       1
       9237.2270       82.139317       31.978115       1
       9249.3776       108.76576       39.907685       1
       9261.5281       62.676087       31.508545       1
       9273.6786       84.258069       39.570313       1
       9285.8292       93.231061       31.414305       1
       9297.9797       92.032750       39.128083       1
       9310.1302       99.816797       31.143127       1
       9322.2807       127.05658       38.676014       1
       9334.4313       95.474281       30.856561       1
       9346.5818       90.703156       38.028574       1
       9358.7323       136.15392       30.967560       1
       9370.8828       56.501203       37.555386       1
       9383.0334       87.746070       30.372656       1
       9395.1839       58.762026       37.103862       1
       9407.3344       107.85189       30.060129       1
       9419.4849       115.77248       37.293423       1
       9431.6355       109.39952       29.570717       1
       9443.7860       130.64773       36.748011       1
       9455.9365       118.59267       30.577949       1
       9468.0870       108.90880       36.395655       1
       9480.2376       140.35826       29.031231       1
       9492.3881       76.946322       35.823787       1
       9504.5386       125.27810       28.838110       1
       9516.6891       115.57388       35.693691       1
       9528.8397       67.939557       28.219081       1
       9540.9902       109.68660       35.294884       1
       9553.1407       101.60689       29.027394       1
       9565.2912       125.63273       35.062742       1
       9577.4418       117.60240       28.660531       1
       9589.5923       96.093606       34.389102       1
       9601.7428       118.82986       27.550878       1
       9613.8933       99.085930       34.001055       1
       9626.0439       109.00668       27.221085       1
       9638.1944       121.53761       34.041536       1
       9650.3449       95.653893       26.928073       1
       9662.4954       78.349986       33.032688       1
       9674.6460       91.220983       26.612942       1
       9686.7965       79.589060       33.127343       1
       9698.9470       108.95414       26.676358       1
       9711.0976       69.347280       32.522679       1
       9723.2481       150.25558       26.644902       1
       9735.3986       102.01284       32.844586       1
       9747.5491       126.53878       26.226839       1
       9759.6997       113.94113       32.434798       1
       9771.8502       155.37518       26.223521       1
       9784.0007       125.52549       32.225694       1
       9796.1512       164.57784       26.037469       1
       9808.3018       61.184389       21.655034       1
       9820.4523       122.87106       25.591278       1
       9832.6028       146.22733       32.078002       1
       9844.7533       123.08124       25.605081       1
       9856.9039       138.79744       31.826650       1
       9869.0544       134.81965       25.486027       1
       9881.2049       154.07697       32.070113       1
       9893.3554       139.26775       25.299094       1
       9905.5060       150.78128       31.931994       1
       9917.6565       141.93365       25.371459       1
       9929.8070       116.88959       31.321539       1
       9941.9575       146.63704       26.094436       1
       9954.1081       143.96024       31.568400       1
       9966.2586       157.17890       25.039819       1
       9978.4091       129.30053       30.881939       1
       9990.5596       107.26685       27.053317       1
       10002.710       136.64679       30.735128       1
       10014.861       109.88461       23.931988       1
       10027.011       131.27946       35.596990       1
       10039.162       133.10104       24.060366       1
       10051.312       138.11214       35.742987       1
       10063.463       117.01660       23.937883       1
       10075.613       142.93876       30.048261       1
       10087.764       94.720497       23.812546       1
       10099.914       107.71320       29.757335       1
       10112.065       122.68597       23.827688       1
       10124.215       78.655532       29.425783       1
       10136.366       133.16564       23.764742       1
       10148.516       136.58773       29.693539       1
       10160.667       134.82871       23.573494       1
       10172.818       139.42426       29.332207       1
       10184.968       117.61523       23.531876       1
       10197.119       104.68937       29.020258       1
       10209.269       107.63219       25.932412       1
       10221.420       133.71915       29.215925       1
       10233.570       117.45496       23.039016       1
       10245.721       100.30922       28.656781       1
       10257.871       108.29009       22.668581       1
       10270.022       98.255790       28.202939       1
       10282.172       101.51597       22.556898       1
       10294.323       73.883523       27.884822       1
       10306.473       129.76736       22.585828       1
       10318.624       127.04878       28.109274       1
       10330.774       87.037853       22.084071       1
       10342.925       148.32835       27.956487       1
       10355.075       88.760085       22.081098       1
       10367.226       99.874668       27.744247       1
       10379.376       115.32603       22.163118       1
       10391.527       85.076506       27.568595       1
       10403.678       104.83690       22.210050       1
       10415.828       84.326056       27.451453       1
       10427.979       126.00816       22.245322       1
       10440.129       135.19085       28.269573       1
       10452.280       99.617305       21.943181       1
       10464.430       117.07574       27.280310       1
       10476.581       106.32484       22.076212       1
       10488.731       78.187893       27.432017       1
       10500.882       113.99438       22.030938       1
       10513.032       106.18842       27.532636       1
       10525.183       116.95648       22.091432       1
       10537.333       89.854044       27.719234       1
       10549.484       95.106874       21.951877       1
       10561.634       89.307774       27.447502       1
       10573.785       111.15809       21.999691       1
       10585.935       137.79563       27.779091       1
       10598.086       99.815254       21.882307       1
       10610.236       107.66466       27.081500       1
       10622.387       144.62313       22.016474       1
       10634.538       31.160432       26.716824       1
       10646.688       135.71350       21.589739       1
       10658.839       145.05724       27.029484       1
       10670.989       93.989115       21.218129       1
       10683.140       147.41706       26.773641       1
       10695.290       117.26923       21.313849       1
       10707.441       118.54288       26.760019       1
       10719.591       100.70278       21.070242       1
       10731.742       138.27615       26.908934       1
       10743.892       123.24319       21.170922       1
       10756.043       76.613804       26.285391       1
       10768.193       127.90259       21.423163       1
       10780.344       154.83794       27.104548       1
       10792.494       116.65492       21.322660       1
       10804.645       139.18971       26.782366       1
       10816.795       133.65267       21.305428       1
       10828.946       122.12430       26.638877       1
       10841.096       130.91811       21.258753       1
       10853.247       88.382847       26.203282       1
       10865.397       115.82990       21.069757       1
       10877.548       121.71217       26.239030       1
       10889.699       132.97524       23.897233       1
       10901.849       118.35010       26.285109       1
       10914.000       98.712430       23.604272       1
       10926.150       143.22412       26.530513       1
       10938.301       118.87421       23.758428       1
       10950.451       112.33797       30.998410       1
       10962.602       115.67254       23.348451       1
       10974.752       121.64898       26.191518       1
       10986.903       133.84889       21.095896       1
       10999.053       133.03475       26.226441       1
       11011.204       119.13947       20.840699       1
       11023.354       125.10733       26.295320       1
       11035.505       112.19321       20.867761       1
       11047.655       113.32008       25.997333       1
       11059.806       128.89670       20.897346       1
       11071.956       134.01464       26.161899       1
       11084.107       109.47837       20.846868       1
       11096.257       121.19193       25.780438       1
       11108.408       105.91516       20.889186       1
       11120.559       118.75368       25.635372       1
       11132.709       107.77545       20.912519       1
       11144.860       129.08037       26.159212       1
       11157.010       97.349812       30.521947       1
       11169.161       113.47816       25.895765       1
       11181.311       123.47775       21.100081       1
       11193.462       137.80306       25.972997       1
       11205.612       145.73945       21.198729       0
       11217.763       119.31813       25.814663       0
       11229.913       118.48415       20.935898       0
       11242.064       140.49365       25.905006       0
       11254.214       119.56972       21.004435       0
       11266.365       127.95803       25.920052       0
       11278.515       94.405420       20.766352       0
       11290.666       117.48799       25.916762       0
       11302.816       124.67683       20.970421       0
       11314.967       115.33455       26.396774       0
       11327.117       139.45508       21.500014       0
       11339.268       79.273036       27.303998       0
       11351.419       119.95504       23.003320       0
       11363.569       110.00911       30.267651       0
       11375.720       119.37103       25.956393       0
       11387.870       120.56574       34.683838       0
       11400.021       100.12778       31.257807       0
       11412.171       106.77070       43.041318       0
       11424.322       116.18065       39.231417       0
       11436.472       16.794280       54.356047       0
       11448.623       113.90381       50.651265       0
       11460.773       27.280075       70.027770       0
       11472.924       115.89698       63.916207       0
       11485.074       165.80895       89.195684       0
       11497.225       123.74231       88.735994       0
       11509.375       83.817752       108.70106       0
       11521.526       192.12250       111.43153       0
       11533.676      0.51646197       139.07379       0
       11545.827       178.97719       131.44002       0
       11557.977      -11.129218       193.03004       0
       11570.128       267.43104       191.57808       0
       11582.279       194.22404       297.18933       0
       11594.429       381.44683       297.72815       0
       11606.580       655.70456       459.54597       0
       11618.730      -14.234654       445.81729       0
       11630.881       1103.6694       676.49441       0
       11643.031      -756.80497       652.32243       0
       11655.182       642.69118       1014.7446       0
       11667.332      -230.99602       1037.0188       0
       11679.483       949.23670       1697.8375       0
       11691.633      -1140.8683       1753.9043       0
       11703.784       354.90629       2867.8405       0
       11715.934      -122.16504       3005.8198       0
       11728.085      -2405.0234       4621.3421       0
       11740.235      -5457.1340       5486.0715       0
       11752.386      -1938.2501       5183.5171       0
       11764.536      -1406.4932       4116.3959       0
       11776.687      -2785.4005       4932.1392       0
       11788.837       1092.5699       3875.6842       0
       11800.988      -3313.4524       4983.0693       0
       11813.138      -3153.7011       5754.6767       0
       11825.289      -2989.4065       5992.0084       0
       11837.440      -1616.1491       5575.3339       0
       11849.590       9759.3773       8356.4430       0
       11861.741       6240.6143       7938.8492       0
