#WAVELENGTH FLUX ERROR MASK
       7484.5072      -7198.6140       16994.364       0
       7496.2541      -10954.392       18606.824       0
       7508.0011      -347.35869       12622.370       0
       7519.7481      -1447.1653       13335.223       0
       7531.4950       2883.9030       9283.1828       0
       7543.2420       1467.7004       9493.2700       0
       7554.9889      -503.66007       6125.5509       0
       7566.7359       2793.9380       6088.0932       0
       7578.4828       2268.4747       3912.0803       0
       7590.2298      -3006.2218       3894.2496       0
       7601.9768       1790.4786       2679.9729       0
       7613.7237      -1784.4942       2778.7461       0
       7625.4707       1079.8091       1958.7607       0
       7637.2176       703.78135       2094.6806       0
       7648.9646       35.830539       1467.8208       0
       7660.7115       1515.9072       1564.8389       0
       7672.4585       366.60583       1059.6682       0
       7684.2054      -486.97324       1091.7980       0
       7695.9524       1005.8565       753.41323       0
       7707.6994       250.81584       790.78463       0
       7719.4463       887.15333       562.12137       0
       7731.1933       698.36807       621.64524       0
       7742.9402       523.36346       454.76367       0
       7754.6872       654.22983       516.46896       0
       7766.4341      -108.71985       379.13013       0
       7778.1811      -555.13436       428.81388       0
       7789.9281       184.25068       326.03333       0
       7801.6750      -229.35437       364.42662       0
       7813.4220       290.65382       269.89782       0
       7825.1689       77.993247       298.24695       0
       7836.9159       111.71620       217.45546       0
       7848.6628       33.169869       243.71654       0
       7860.4098       137.62555       179.16299       0
       7872.1568      -51.109674       202.12794       0
       7883.9037       222.92058       153.25432       0
       7895.6507      -40.506209       174.92135       0
       7907.3976       92.939969       133.80130       0
       7919.1446       112.83860       157.09143       0
       7930.8915       211.25032       135.46280       0
       7942.6385       300.28135       145.35614       0
       7954.3855       125.57651       110.55373       0
       7966.1324       113.15941       130.16428       0
       7977.8794       172.72004       102.25810       0
       7989.6263      -54.007220       120.30776       0
       8001.3733       212.23203       95.767154       0
       8013.1202       126.09314       114.18961       0
       8024.8672       180.62597       90.180033       0
       8036.6141       308.37149       110.21210       0
       8048.3611       33.139756       89.180762       0
       8060.1081       111.68598       105.46060       0
       8071.8550       60.947533       83.044811       0
       8083.6020       445.53866       108.02344       0
       8095.3489       218.80923       82.386747       0
       8107.0959       111.48002       97.702256       0
       8118.8428       212.57470       79.277525       0
       8130.5898       120.32673       95.042418       0
       8142.3368       73.386069       75.410863       0
       8154.0837      -30.976278       89.141496       1
       8165.8307       92.301483       73.265493       1
       8177.5776       59.910869       88.434474       1
       8189.3246       80.401718       71.053428       1
       8201.0715       146.56707       86.210778       1
       8212.8185       51.181131       68.018320       1
       8224.5655       52.783094       80.829772       1
       8236.3124       124.85328       65.795035       1
       8248.0594       174.23733       78.645611       1
       8259.8063       124.82741       62.592384       1
       8271.5533       219.93666       75.501325       1
       8283.3002       28.160328       58.747767       1
       8295.0472       20.382761       69.885875       1
       8306.7942       77.762494       56.702521       1
       8318.5411       100.23707       69.033371       1
       8330.2881       106.90948       55.061859       1
       8342.0350       139.97219       65.974127       1
       8353.7820       31.182218       52.813565       1
       8365.5289       140.49817       64.238536       1
       8377.2759       73.371722       51.660646       1
       8389.0229       158.82755       63.664424       1
       8400.7698       171.30599       51.281627       1
       8412.5168       36.696733       60.870296       1
       8424.2637       136.57428       49.753688       1
       8436.0107       53.891884       58.712667       1
       8447.7576       190.01319       48.818391       1
       8459.5046       120.66647       57.938430       1
       8471.2515       149.51008       46.940421       1
       8482.9985       125.19062       56.386667       1
       8494.7455       46.874660       45.084766       1
       8506.4924       153.45426       55.262752       1
       8518.2394       103.93390       44.616513       1
       8529.9863       10.889732       52.647821       1
       8541.7333       163.37746       44.010281       1
       8553.4802       118.81185       53.166105       1
       8565.2272       124.37953       43.262821       1
       8576.9742       121.94878       52.347751       1
       8588.7211       157.27527       52.776793       1
       8600.4681       118.31809       52.177641       1
       8612.2150       167.86272       43.010030       1
       8623.9620       93.448055       51.483775       1
       8635.7089       76.117818       42.003591       1
       8647.4559       96.924146       51.249683       1
       8659.2029       154.48487       42.136597       1
       8670.9498       136.86156       50.519851       1
       8682.6968       90.293943       44.099748       1
       8694.4437       107.47464       48.682897       1
       8706.1907       146.94416       38.838107       1
       8717.9376       161.86316       47.599827       1
       8729.6846       118.93081       37.335457       1
       8741.4316       104.38260       45.134260       1
       8753.1785       115.97338       36.065583       1
       8764.9255       153.05519       44.738572       1
       8776.6724       99.039561       39.274077       1
       8788.4194       127.49405       54.552443       1
       8800.1663       74.808456       34.595777       1
       8811.9133       109.10722       42.818418       1
       8823.6603       110.01174       34.184463       1
       8835.4072       106.17504       41.748610       1
       8847.1542       101.42180       33.354819       1
       8858.9011       72.718994       40.406322       1
       8870.6481       88.949553       32.484734       1
       8882.3950       119.57374       40.076744       1
       8894.1420       119.13422       32.278276       1
       8905.8889       108.70656       39.616847       1
       8917.6359       137.88009       31.999320       1
       8929.3829       94.990265       46.498194       1
       8941.1298       91.732810       30.997403       1
       8952.8768       110.01746       46.280794       1
       8964.6237       109.64468       30.722297       1
       8976.3707       129.03121       37.774332       1
       8988.1176       79.335668       33.290376       1
       8999.8646       74.742435       43.958077       1
       9011.6116       103.26925       29.709825       1
       9023.3585       125.76546       44.495889       1
       9035.1055       95.538800       29.164422       1
       9046.8524       115.98058       36.373725       1
       9058.5994       108.14862       29.228562       1
       9070.3463       127.26785       36.373760       1
       9082.0933       107.40132       29.325547       1
       9093.8403       122.02033       35.711483       1
       9105.5872       116.90416       28.546160       1
       9117.3342       118.59010       34.808606       1
       9129.0811       85.826891       27.654421       1
       9140.8281       114.18653       42.381610       1
       9152.5750       112.98011       30.716777       1
       9164.3220       103.14652       33.642710       1
       9176.0690       143.19668       27.109716       1
       9187.8159       99.523120       32.853214       1
       9199.5629       97.749399       26.322259       1
       9211.3098       103.22938       32.405308       1
       9223.0568       101.37611       25.881347       1
       9234.8037       108.02272       32.006519       1
       9246.5507       105.77501       25.618342       1
       9258.2977       74.801114       31.208338       1
       9270.0446       119.61668       25.524465       1
       9281.7916       106.36116       31.248707       1
       9293.5385       120.81589       24.752383       1
       9305.2855       173.67476       31.435209       1
       9317.0324       162.10024       24.614245       1
       9328.7794       186.09577       31.168198       1
       9340.5263       107.93778       24.042495       1
       9352.2733       113.51098       30.232605       1
       9364.0203       90.607283       23.746710       1
       9375.7672       32.625236       29.127018       1
       9387.5142       163.27066       24.265407       1
       9399.2611       78.230812       29.403357       1
       9411.0081       132.50007       23.537701       1
       9422.7550       89.403921       29.117185       1
       9434.5020       130.26142       23.333195       1
       9446.2490       50.267335       28.347057       1
       9457.9959       135.62436       23.072785       1
       9469.7429       37.611224       27.879816       1
       9481.4898       99.714847       22.482449       1
       9493.2368       102.48192       28.196559       1
       9504.9837       141.66662       22.568225       1
       9516.7307       105.95820       27.977837       1
       9528.4777       130.44306       22.311947       1
       9540.2246       106.95670       27.763146       1
       9551.9716       95.031640       21.876914       1
       9563.7185       77.113988       27.237727       1
       9575.4655       110.46833       21.726739       1
       9587.2124       113.40848       27.077142       1
       9598.9594       84.969555       21.266261       1
       9610.7064       161.81017       27.249293       1
       9622.4533       83.524651       20.970501       1
       9634.2003       91.253394       26.530797       1
       9645.9472       84.716326       20.949400       1
       9657.6942       82.123019       26.294811       1
       9669.4411       106.09096       20.931691       1
       9681.1881       106.39207       25.772134       1
       9692.9350       113.57991       20.539679       1
       9704.6820       82.664958       25.778920       1
       9716.4290       97.486381       20.460771       1
       9728.1759       122.00104       25.892375       1
       9739.9229       87.658654       20.189550       1
       9751.6698       78.531938       25.131008       1
       9763.4168       120.93483       20.260886       1
       9775.1637       133.45184       25.625708       1
       9786.9107       87.447969       19.777186       1
       9798.6577       101.96426       24.933583       1
       9810.4046       98.392683       19.774103       1
       9822.1516       63.795643       24.540622       1
       9833.8985       89.341820       19.637872       1
       9845.6455       139.97623       25.028031       1
       9857.3924       114.83244       19.752613       1
       9869.1394       125.10291       24.958998       1
       9880.8864       114.03904       19.635549       1
       9892.6333       167.39676       25.259414       1
       9904.3803       125.44211       20.096271       1
       9916.1272       100.16990       24.505918       1
       9927.8742       136.38727       20.111772       1
       9939.6211       123.84087       24.821740       1
       9951.3681       100.22384       19.573062       1
       9963.1151       137.91032       24.613059       1
       9974.8620       114.20236       19.510712       1
       9986.6090       101.34839       23.811010       1
       9998.3559       110.93886       19.211011       1
       10010.103       121.87439       23.773955       1
       10021.850       112.48625       19.037350       1
       10033.597       125.31002       23.689749       1
       10045.344       138.45100       19.113836       1
       10057.091       136.24651       23.629397       1
       10068.838       100.41932       18.790533       1
       10080.585       113.10342       23.373434       1
       10092.332       111.53971       18.904594       1
       10104.079       127.09153       23.593148       1
       10115.825       123.78687       19.696559       1
       10127.572       107.65366       23.254971       1
       10139.319       125.54836       19.583286       1
       10151.066       126.99749       23.226659       1
       10162.813       152.19667       18.856275       1
       10174.560       145.10935       23.246169       1
       10186.307       123.31244       18.512783       1
       10198.054       103.38678       22.530085       1
       10209.801       96.256657       18.233675       1
       10221.548       139.90257       22.926893       1
       10233.295       103.28259       18.162822       1
       10245.042       138.74908       22.661792       1
       10256.789       112.28123       17.982006       1
       10268.536       109.49004       22.010278       1
       10280.283       130.75620       17.831955       1
       10292.030       121.53892       21.996521       1
       10303.777       113.99005       17.582675       1
       10315.524       100.02484       21.621561       1
       10327.271       134.09611       17.702276       1
       10339.018       124.57535       21.717640       1
       10350.765       127.12918       17.540299       1
       10362.512       88.688433       21.358718       1
       10374.259       114.16249       17.516418       1
       10386.005       102.53886       21.335871       1
       10397.752       96.274162       17.219339       1
       10409.499       117.56706       23.491692       1
       10421.246       122.26025       17.447681       1
       10432.993       103.93660       21.276948       1
       10444.740       132.95861       17.439051       1
       10456.487       141.95735       21.559013       1
       10468.234       116.85230       17.220072       1
       10479.981       123.24527       21.332018       1
       10491.728       117.07142       17.197140       1
       10503.475       111.98388       21.210641       1
       10515.222       144.08816       17.701383       1
       10526.969       104.27081       21.297725       1
       10538.716       103.96266       21.314904       1
       10550.463       130.10223       21.680263       1
       10562.210       126.51681       17.613101       1
       10573.957       153.29909       21.931113       1
       10585.704       117.12242       17.456717       1
       10597.451       138.74260       21.441636       1
       10609.198       136.23337       17.492402       1
       10620.945       154.13660       21.701567       1
       10632.692       167.41407       17.922917       1
       10644.439       114.25339       20.847200       1
       10656.186       122.76634       17.191449       1
       10667.932       126.66256       20.663216       1
       10679.679       136.98614       17.067398       1
       10691.426       127.63492       20.808053       1
       10703.173       99.625324       16.719418       1
       10714.920       117.90506       20.612094       1
       10726.667       131.31128       17.007509       1
       10738.414       108.82130       20.519398       1
       10750.161       121.12161       16.954112       1
       10761.908       134.18413       20.798323       1
       10773.655       118.66454       16.851201       1
       10785.402       131.41945       20.506926       1
       10797.149       114.20212       16.661149       1
       10808.896       139.37996       20.170755       1
       10820.643       137.56962       16.882536       1
       10832.390       140.86332       20.467240       1
       10844.137       146.55124       16.845851       1
       10855.884       164.59083       20.443753       1
       10867.631       146.00944       16.785720       1
       10879.378       119.37932       20.113817       1
       10891.125       111.55394       16.359483       1
       10902.872       124.88520       19.856231       1
       10914.619       110.44324       16.189067       1
       10926.366       145.38410       20.033182       1
       10938.112       91.612537       16.165157       1
       10949.859       126.87458       19.969534       1
       10961.606       125.50994       16.493035       1
       10973.353       150.11300       20.299600       1
       10985.100       109.14769       16.312116       1
       10996.847       128.07381       19.986850       1
       11008.594       133.76210       16.453220       1
       11020.341       144.98439       20.074799       1
       11032.088       107.75521       16.208500       1
       11043.835       105.86070       19.804423       1
       11055.582       81.188402       15.950156       1
       11067.329       133.91054       19.972407       1
       11079.076       121.45364       16.257759       1
       11090.823       119.38282       19.964942       1
       11102.570       94.953738       15.979209       1
       11114.317       125.28763       19.953143       1
       11126.064       115.05187       16.198998       1
       11137.811       80.741302       19.348723       1
       11149.558       117.42472       15.903444       1
       11161.305       130.19961       19.763587       1
       11173.052       110.22552       15.820162       1
       11184.799       144.07603       19.972878       1
       11196.546       129.26046       15.901604       1
       11208.292       118.47545       19.571943       0
       11220.039       122.13715       15.900956       0
       11231.786       128.12267       19.648401       0
       11243.533       137.95036       15.889536       0
       11255.280       135.59750       20.117050       0
       11267.027       128.04881       15.873329       0
       11278.774       141.98394       20.318674       0
       11290.521       150.17762       16.070599       0
       11302.268       105.98585       19.525217       0
       11314.015       142.01697       16.003467       0
       11325.762       102.44983       19.532773       0
       11337.509       115.21841       16.912394       0
       11349.256       163.25516       20.951641       0
       11361.003       103.78266       17.048352       0
       11372.750       120.87827       22.430353       0
       11384.497       92.602769       19.018995       0
       11396.244       105.35521       25.461578       0
       11407.991       117.32802       22.547133       0
       11419.738       78.322866       30.683634       0
       11431.485       99.146064       27.772160       0
       11443.232       96.750344       38.851726       0
       11454.979       78.128255       35.317598       0
       11466.726       103.18855       49.607189       0
       11478.472       71.789658       44.222603       0
       11490.219       120.90979       61.452425       0
       11501.966       99.058900       54.062551       0
       11513.713       182.08957       74.378813       0
       11525.460       58.433525       66.197682       0
       11537.207       139.44784       93.250148       0
       11548.954       108.92267       85.513679       0
       11560.701       41.480051       123.45654       0
       11572.448       26.599842       118.79307       0
       11584.195       269.68789       180.78030       0
       11595.942       243.49265       179.99501       0
       11607.689       286.04697       274.03512       0
       11619.436      -104.90572       267.89177       0
       11631.183      -32.218724       401.40472       0
       11642.930      -99.478234       390.79694       0
       11654.677       257.69971       583.57874       0
       11666.424       165.86310       567.79226       0
       11678.171       32.404950       888.54033       0
       11689.918       365.99241       933.10545       0
       11701.665       137.46873       1489.0506       0
