#WAVELENGTH FLUX ERROR MASK
       7525.4837       14544.436       341.49102       0
       7537.8369       16421.662       252.98855       0
       7550.1900       5791.0090       279.53158       0
       7562.5431       408.50248       197.50725       0
       7574.8962       1834.1609       219.11339       0
       7587.2494       2311.6529       158.76942       0
       7599.6025       2295.4375       178.22946       0
       7611.9556       4043.1500       132.79358       0
       7624.3087      -579.65243       104.83846       0
       7636.6619       1769.4782       112.95332       0
       7649.0150      -1012.9744       128.81173       0
       7661.3681       1479.0235       97.276621       0
       7673.7212      -593.51068       109.16039       0
       7686.0744      -813.07633       79.949821       0
       7698.4275       1056.4459       91.888157       0
       7710.7806       683.73656       68.607373       0
       7723.1337      -316.82281       78.180835       0
       7735.4869       795.78279       60.471514       0
       7747.8400       369.78412       70.774095       0
       7760.1931       28.051391       54.654305       0
       7772.5463       440.27468       65.539267       0
       7784.8994       437.13129       50.811472       0
       7797.2525       215.74527       59.036288       0
       7809.6056       282.96029       52.451801       0
       7821.9588       329.66988       53.477811       0
       7834.3119       344.98973       41.998719       0
       7846.6650       314.38182       47.781109       0
       7859.0181       295.87648       37.213716       0
       7871.3713       168.23269       43.436671       0
       7883.7244       76.580390       34.536743       0
       7896.0775       365.78276       40.653032       0
       7908.4306       109.52052       32.328772       0
       7920.7838       38.105674       31.662527       0
       7933.1369       272.99907       30.305837       0
       7945.4900       245.12250       36.505228       0
       7957.8431       70.120074       31.349717       0
       7970.1963       210.60426       34.952944       0
       7982.5494       274.82677       27.806102       0
       7994.9025       201.06051       33.670018       0
       8007.2556       214.98029       26.836177       0
       8019.6088       297.96493       32.751865       0
       8031.9619       304.76103       26.228634       0
       8044.3150       212.48290       31.782455       0
       8056.6682       93.310476       25.246013       0
       8069.0213       154.68071       31.219168       0
       8081.3744       324.86583       25.330925       0
       8093.7275       193.06567       31.100329       0
       8106.0807       200.89957       24.727682       0
       8118.4338       116.38423       29.975788       0
       8130.7869       228.49915       24.225159       0
       8143.1400       258.55326       29.588906       0
       8155.4932       197.22940       25.714357       1
       8167.8463       223.21022       29.134876       1
       8180.1994       271.33878       23.592455       1
       8192.5525       235.61677       28.627573       1
       8204.9057       151.09790       22.933528       1
       8217.2588       157.43497       28.017160       1
       8229.6119       171.77802       22.525363       1
       8241.9650       298.98352       27.903172       1
       8254.3182       302.31265       22.259344       1
       8266.6713       249.60287       33.825037       1
       8279.0244       233.85540       21.588972       1
       8291.3776       169.64374       26.318896       1
       8303.7307       190.22561       21.002709       1
       8316.0838       272.93309       32.534698       1
       8328.4369       201.35235       20.577827       1
       8340.7901       63.337216       25.066690       1
       8353.1432       256.15281       20.430983       1
       8365.4963       264.79497       25.118132       1
       8377.8494       239.44104       20.133531       1
       8390.2026       254.05703       24.907244       1
       8402.5557       150.98808       19.699124       1
       8414.9088       63.528164       24.028037       1
       8427.2619       198.10466       27.665915       1
       8439.6151       229.97327       24.202980       1
       8451.9682       205.21344       27.274889       1
       8464.3213       219.20645       23.769778       1
       8476.6744       247.48465       18.930293       1
       8489.0276       282.05210       23.714817       1
       8501.3807       217.24520       18.733043       1
       8513.7338       241.16664       23.210379       1
       8526.0869       257.02991       18.737409       1
       8538.4401       224.36468       22.942985       1
       8550.7932       232.08609       18.550932       1
       8563.1463       230.11338       22.920253       1
       8575.4995       193.31516       18.356715       1
       8587.8526       190.38359       22.647281       1
       8600.2057       232.33668       18.334307       1
       8612.5588       194.32340       22.635814       1
       8624.9120       204.83011       18.201662       1
       8637.2651       223.24050       22.564222       1
       8649.6182       199.75016       18.162988       1
       8661.9713       238.61552       22.764635       1
       8674.3245       228.20038       18.109896       1
       8686.6776       245.85922       22.387960       1
       8699.0307       202.08382       17.739882       1
       8711.3838       220.31348       21.964980       1
       8723.7370       229.30675       17.477121       1
       8736.0901       222.85221       21.612584       1
       8748.4432       201.95174       17.139956       1
       8760.7963       162.21016       21.110234       1
       8773.1495       200.48844       16.998869       1
       8785.5026       71.319249       17.055407       1
       8797.8557       249.18013       16.927571       1
       8810.2089       204.44107       20.827225       1
       8822.5620       198.44759       16.605391       1
       8834.9151       226.97623       20.806808       1
       8847.2682       170.78690       16.341457       1
       8859.6214       184.40647       20.372394       1
       8871.9745       238.93963       16.393531       1
       8884.3276       198.34336       20.161349       1
       8896.6807       222.92730       16.277903       1
       8909.0339       245.82988       20.352755       1
       8921.3870       206.48660       20.245400       1
       8933.7401       228.60231       20.075424       1
       8946.0932       251.00400       16.073873       1
       8958.4464       178.06572       19.726806       1
       8970.7995       227.27117       15.903254       1
       8983.1526       190.64021       19.561375       1
       8995.5057       205.41189       15.662749       1
       9007.8589       217.24410       19.578703       1
       9020.2120       202.62056       15.598466       1
       9032.5651       207.67499       19.477761       1
       9044.9182       186.41485       15.518905       1
       9057.2714       219.76544       19.406540       1
       9069.6245       219.71304       16.992502       1
       9081.9776       161.59102       19.088046       1
       9094.3308       235.88960       15.444073       1
       9106.6839       196.23497       18.788674       1
       9119.0370       238.57794       15.233629       1
       9131.3901       173.45181       18.640275       1
       9143.7433       171.90404       14.988792       1
       9156.0964       214.17420       18.526669       1
       9168.4495       185.27371       14.879061       1
       9180.8026       196.67701       18.242027       1
       9193.1558       194.55960       14.785167       1
       9205.5089       208.07646       18.296319       1
       9217.8620       194.37686       14.724716       1
       9230.2151       176.61742       17.983080       1
       9242.5683       192.74668       14.554948       1
       9254.9214       188.46729       17.952131       1
       9267.2745       167.85087       14.417524       1
       9279.6276       225.35681       17.966759       1
       9291.9808       160.23905       14.255705       1
       9304.3339       204.66042       17.762732       1
       9316.6870       169.83152       14.181750       1
       9329.0402       197.49704       17.735248       1
       9341.3933       181.76203       14.180402       1
       9353.7464       163.77092       17.572014       1
       9366.0995       184.75737       14.158684       1
       9378.4527       201.64967       17.625168       1
       9390.8058       229.59799       14.141530       1
       9403.1589       188.12567       17.416933       1
       9415.5120       200.91940       14.093678       1
       9427.8652       171.60272       17.279561       1
       9440.2183       200.29751       13.963065       1
       9452.5714       210.14200       17.362059       1
       9464.9245       217.68704       13.937019       1
       9477.2777       149.19253       16.903708       1
       9489.6308       191.77555       15.622720       1
       9501.9839       171.66485       17.035906       1
       9514.3370       155.94081       13.686080       1
       9526.6902       168.66803       16.871033       1
       9539.0433       154.49196       13.568826       1
       9551.3964       191.40559       16.703911       1
       9563.7495       156.01953       13.547560       1
       9576.1027       162.33016       16.729956       1
       9588.4558       196.39216       13.523276       1
       9600.8089       180.04188       16.643934       1
       9613.1621       173.68652       14.728355       1
       9625.5152       182.69177       16.546575       1
       9637.8683       190.87181       14.696845       1
       9650.2214       178.14263       16.521166       1
       9662.5746       162.60737       13.355412       1
       9674.9277       167.86416       16.377097       1
       9687.2808       191.91824       17.233584       1
       9699.6339       180.15703       16.394759       1
       9711.9871       193.82832       13.268022       1
       9724.3402       144.13340       16.214593       1
       9736.6933       166.25815       13.119546       1
       9749.0464       166.28029       16.159030       1
       9761.3996       174.02205       13.071489       1
       9773.7527       175.92132       16.210190       1
       9786.1058       160.39213       14.035371       1
       9798.4589       145.82070       15.887058       1
       9810.8121       186.22787       13.098109       1
       9823.1652       185.17699       16.151952       1
       9835.5183       156.98501       12.918796       1
       9847.8715       171.14787       15.997527       1
       9860.2246       159.70354       12.899955       1
       9872.5777       175.91097       16.034383       1
       9884.9308       154.53991       12.851817       1
       9897.2840       166.70406       15.955463       1
       9909.6371       157.23017       12.882594       1
       9921.9902       138.29037       15.729457       1
       9934.3433       154.76885       12.769360       1
       9946.6965       152.48000       15.734121       1
       9959.0496       128.09540       13.770075       1
       9971.4027       176.18650       15.882392       1
       9983.7558       138.88761       12.632017       1
       9996.1090       174.13814       15.821277       1
       10008.462       127.17931       12.481611       1
       10020.815       162.26622       15.638637       1
       10033.168       126.08444       12.433889       1
       10045.521       142.67498       15.527963       1
       10057.875       127.84218       12.467859       1
       10070.228       178.03750       15.758875       1
       10082.581       158.91206       12.552607       1
       10094.934       173.04394       15.642900       1
       10107.287       154.40657       12.537425       1
       10119.640       136.78037       15.412921       1
       10131.993       135.64037       12.424768       1
       10144.346       148.50618       15.431135       1
       10156.700       126.22200       12.337760       1
       10169.053       138.21170       15.331795       1
       10181.406       133.92508       14.007911       1
       10193.759       116.39255       15.157461       1
       10206.112       165.12751       12.445320       1
       10218.465       156.24944       15.275531       1
       10230.818       161.32596       12.306367       1
       10243.171       140.63753       15.178780       1
       10255.525       128.87844       12.164840       1
       10267.878       151.84155       15.105407       1
       10280.231       144.54841       12.138034       1
       10292.584       124.90740       14.898305       1
       10304.937       134.32595       12.033134       1
       10317.290       110.64451       14.674559       1
       10329.643       149.35690       12.060202       1
       10341.996       144.73128       14.860547       1
       10354.350       137.42067       11.989877       1
       10366.703       103.70082       18.033919       1
       10379.056       133.37409       11.974994       1
       10391.409       124.23016       14.751928       1
       10403.762       137.93467       11.988060       1
       10416.115       148.74868       14.969324       1
       10428.468       125.66601       12.990906       1
       10440.822       184.09244       15.081802       1
       10453.175       155.51765       11.946803       1
       10465.528       146.99020       14.840815       1
       10477.881       155.51161       11.907084       1
       10490.234       161.66494       14.916037       1
       10502.587       146.19380       11.879015       1
       10514.940       172.74759       14.950547       1
       10527.293       166.57454       11.975122       1
       10539.647       159.60325       14.919310       1
       10552.000       147.28108       11.915627       1
       10564.353       166.39964       14.899182       1
       10576.706       149.76796       11.932784       1
       10589.059       120.92209       14.643351       1
       10601.412       155.74161       11.885919       1
       10613.765       159.81931       14.797830       1
       10626.118       167.48756       11.946174       1
       10638.472       155.11380       14.769397       1
       10650.825       163.85561       11.856485       1
       10663.178       146.56112       14.691124       1
       10675.531       180.48400       11.920596       1
       10687.884       131.83988       14.575631       1
       10700.237       142.41502       11.770364       1
       10712.590       142.58545       14.595000       1
       10724.943       122.63539       12.729313       1
       10737.297       131.71757       14.475605       1
       10749.650       129.65476       11.620492       1
       10762.003       114.47928       14.368252       1
       10774.356       134.69735       11.622312       1
       10786.709       116.92691       14.415039       1
       10799.062       114.91350       11.521164       1
       10811.415       112.36430       14.305666       1
       10823.768       126.41368       11.582534       1
       10836.122       91.355838       14.049431       1
       10848.475       115.01751       11.443827       1
       10860.828       87.961243       14.030174       1
       10873.181       84.568212       11.223558       1
       10885.534       153.38154       14.365904       1
       10897.887       123.68052       11.369298       1
       10910.240       133.12921       14.262352       1
       10922.593       108.56284       12.287707       1
       10934.947       144.63391       14.289650       1
       10947.300       110.00557       11.383266       1
       10959.653       133.03776       14.134868       1
       10972.006       100.45546       11.339210       1
       10984.359       125.79395       14.160926       1
       10996.712       101.39171       11.329202       1
       11009.065       103.81697       14.118087       1
       11021.418       107.53529       11.330659       1
       11033.772       135.66997       14.266333       1
       11046.125       114.74161       11.386259       1
       11058.478       127.43607       14.224085       1
       11070.831       105.83983       11.317854       1
       11083.184       109.35891       14.056292       1
       11095.537       108.25038       11.358041       1
       11107.890       86.605549       13.995103       1
       11120.243       123.83024       11.431584       1
       11132.597       100.14074       14.091349       1
       11144.950       100.55593       11.360277       1
       11157.303       92.507705       13.883284       1
       11169.656       105.52656       11.360010       1
       11182.009       105.84576       13.822825       1
       11194.362       97.390404       11.358880       1
       11206.715       146.87848       14.171499       0
       11219.068       124.31959       11.461900       0
       11231.422       107.02014       14.030048       0
       11243.775       103.95989       11.355354       0
       11256.128       135.13326       14.191905       0
       11268.481       107.85803       11.379105       0
       11280.834       99.207911       13.848526       0
       11293.187       109.43605       11.375935       0
       11305.540       102.33870       14.037027       0
       11317.893       113.61085       11.446434       0
       11330.247       99.308311       14.126750       0
       11342.600       109.32855       11.655693       0
       11354.953       111.31786       14.747059       0
       11367.306       88.932923       12.106264       0
       11379.659       115.59221       15.715019       0
       11392.012       62.278358       12.999025       0
       11404.365       78.973885       16.986391       0
       11416.718       103.45116       14.581046       0
       11429.072       98.910310       19.203176       0
       11441.425       102.25733       16.510822       0
       11453.778       125.38112       21.877395       0
       11466.131       79.619259       18.596261       0
       11478.484       131.92293       24.526027       0
       11490.837       103.98857       21.280512       0
       11503.190       122.16561       27.105688       0
       11515.543       156.53340       23.725956       0
       11527.897      -18.676996       29.871936       0
       11540.250       77.740515       26.432279       0
       11552.603       172.90966       35.514377       0
       11564.956       84.012821       31.754726       0
       11577.309       259.98204       43.693292       0
       11589.662      -39.084299       42.901506       0
       11602.015       81.203503       54.002478       0
       11614.368       49.611969       48.680224       0
       11626.722      -175.92377       66.177527       0
       11639.075       200.54761       59.322530       0
       11651.428       245.25199       80.776206       0
       11663.781       89.620524       73.376540       0
       11676.134       787.33461       104.45158       0
       11688.487      -1462.8194       94.966836       0
       11700.840      -690.69262       135.61948       0
       11713.194      -1203.6185       126.08981       0
       11725.547       1455.5032       178.71644       0
       11737.900      -1648.6247       151.80226       0
       11750.253      -932.35673       193.90365       0
       11762.606       1142.6987       156.05789       0
       11774.959       5083.9842       194.86169       0
       11787.312      -2359.4635       151.14531       0
       11799.665      -13417.002       130.61213       0
       11812.019       5391.3489       159.05277       0
       11824.372      -4302.8444       203.26273       0
       11836.725       267.71808       178.56985       0
       11849.078       5822.4047       242.46577       0
       11861.431       4226.2240       213.43239       0
       11873.784      -7115.2246       284.41477       0
       11886.137       6065.4294       284.04246       0
       11898.490      -4379.4645       322.64402       0
       11910.844      -7023.3526       282.35020       0
       11923.197      -11779.879       382.78966       0
       11935.550       18341.718       350.86047       0
       11947.903       26861.974       477.62672       0
       11960.256       2752.3854       425.69408       0
