#WAVELENGTH FLUX ERROR MASK
       10184.372       3171.9620       3193.0559       0
       10207.306       2800.0796       2859.5776       0
       10230.241      -2845.6108       2455.4460       0
       10253.175       4420.3244       2159.8270       0
       10276.110       879.37982       1843.1950       0
       10299.044       1972.3155       1586.3867       0
       10321.979       1670.3870       1418.9687       0
       10344.913      -16.734061       1248.4369       0
       10367.848       969.72525       1171.7174       0
       10390.782       1360.1275       1066.0028       0
       10413.717       505.93725       966.95033       0
       10436.651       285.90367       1001.9186       0
       10459.586      -254.96806       734.55472       0
       10482.520       261.56507       733.88780       0
       10505.455       593.05681       528.41967       0
       10528.389       344.56674       447.58344       0
       10551.324       500.86098       388.79603       0
       10574.258       552.40797       340.88903       0
       10597.193       445.52130       303.66511       0
       10620.127       447.31850       273.09824       0
       10643.062       402.94419       247.00394       0
       10665.996       544.32011       220.67814       0
       10688.931       375.19464       194.02658       0
       10711.865       388.74888       164.11355       0
       10734.799       232.17717       138.30177       0
       10757.734       388.78717       115.73797       0
       10780.668       329.33338       97.428905       0
       10803.603       276.50111       81.626547       0
       10826.537       188.40854       70.639630       0
       10849.472       209.99048       62.302932       0
       10872.406       192.36773       56.602374       0
       10895.341       257.35385       52.199383       0
       10918.275       183.38043       48.380855       0
       10941.210       206.76576       45.044888       0
       10964.144       203.47301       42.529959       0
       10987.079       184.87953       39.184542       0
       11010.013       234.36693       37.234893       1
       11032.948       187.84655       34.551705       1
       11055.882       170.70120       32.529979       1
       11078.817       153.28751       30.495146       1
       11101.751       187.35569       29.775512       1
       11124.686       171.76516       28.295134       1
       11147.620       153.78739       27.626149       1
       11170.555       165.79321       26.850365       1
       11193.489       170.92302       26.713544       1
       11216.424       155.99659       26.011869       1
       11239.358       165.33075       8917217.9       1
       11262.293       149.07604       25.376194       1
       11285.227       155.50360       25.437094       1
       11308.162       160.30075       25.056791       1
       11331.096       190.94381       25.350437       1
       11354.031       140.22738       24.913860       1
       11376.965       170.45316       24.567585       1
       11399.900       118.32345       20.336158       1
       11422.834       185.59872       24.231589       1
       11445.768       170.91832       23.795139       1
       11468.703       170.17151       23.787966       1
       11491.637       176.34325       23.770591       1
       11514.572       162.84726       23.623222       1
       11537.506       178.76906       23.536108       1
       11560.441       148.46623       23.421352       1
       11583.375       164.08386       23.281034       1
       11606.310       163.32469       23.272640       1
       11629.244       174.59432       23.005430       1
       11652.179       168.38140       22.958326       1
       11675.113       185.37545       22.668635       1
       11698.048       158.60965       22.312303       1
       11720.982       119.83703       19.551867       1
       11743.917       161.26052       21.991277       1
       11766.851       157.27371       21.537702       1
       11789.786       173.42351       21.544774       1
       11812.720       162.65986       20.927338       1
       11835.655       149.05723       20.872920       1
       11858.589       148.73152       20.584143       1
       11881.524       157.56671       20.693464       1
       11904.458       157.86193       20.467809       1
       11927.393       168.38663       20.551768       1
       11950.327       162.72489       20.155361       1
       11973.262       162.17364       20.156970       1
       11996.196       151.00547       19.656258       1
       12019.131       190.77754       20.126477       1
       12042.065       138.15001       19.329945       1
       12065.000       146.96628       19.504012       1
       12087.934       173.69017       19.414700       1
       12110.868       168.87232       19.445189       1
       12133.803       152.38952       19.114414       1
       12156.737       172.74761       19.218401       1
       12179.672       156.48230       18.962554       1
       12202.606       171.14018       19.140794       1
       12225.541       141.59798       18.498132       1
       12248.475       146.83683       19.340404       1
       12271.410       152.10158       18.372548       1
       12294.344       156.41838       18.564787       1
       12317.279       161.92129       18.412292       1
       12340.213       155.17963       18.346728       1
       12363.148       144.35600       18.019162       1
       12386.082       166.67550       18.288240       1
       12409.017       173.27658       18.089885       1
       12431.951       147.92960       17.992647       1
       12454.886       136.89048       18.013990       1
       12477.820       141.14792       17.729750       1
       12500.755       160.04375       18.188737       1
       12523.689       176.72454       18.157808       1
       12546.624       145.05070       18.105990       1
       12569.558       130.68461       17.445326       1
       12592.493       140.82995       17.355509       1
       12615.427       145.76373       17.589679       1
       12638.362       153.03000       17.209861       1
       12661.296       141.77746       17.380251       1
       12684.231       142.21478       17.157560       1
       12707.165       128.24624       17.116872       1
       12730.100       159.51822       17.207602       1
       12753.034       151.42433       17.326884       1
       12775.968       148.49188       17.488201       1
       12798.903       87.312380       17.855597       1
       12821.837       46.261108       17.936210       1
       12844.772       154.91951       18.793027       1
       12867.706       213.93100       19.134802       1
       12890.641       189.55566       18.489631       1
       12913.575       154.48025       18.443862       1
       12936.510       214.65918       17.669945       1
       12959.444       211.88503       17.091826       1
       12982.379       166.16593       16.602258       1
       13005.313       159.63122       16.226392       1
       13028.248       152.36114       16.092041       1
       13051.182       150.53915       15.897728       1
       13074.117       142.20057       15.853676       1
       13097.051       136.02881       15.689888       1
       13119.986       116.45057       13.628512       1
       13142.920       142.32419       15.529078       1
       13165.855       147.98726       15.749217       1
       13188.789       155.58546       15.642308       1
       13211.724       138.78108       15.580588       1
       13234.658       106.24857       13.797233       1
       13257.593       144.11328       15.674864       1
       13280.527       132.66150       15.455881       1
       13303.462       157.46475       15.800293       1
       13326.396       158.18725       15.750675       1
       13349.331       160.62718       15.870018       1
       13372.265       166.85222       15.762103       1
       13395.200       164.97578       15.643740       1
       13418.134       173.54878       15.495633       1
       13441.069       159.43342       15.290949       1
       13464.003       153.43095       15.090561       1
       13486.937       133.45154       14.845811       1
       13509.872       141.18200       15.048343       1
       13532.806       142.11215       14.849401       1
       13555.741       139.12563       14.936900       1
       13578.675       139.81602       14.760097       1
       13601.610       141.59811       14.582705       1
       13624.544       145.66238       14.733953       1
       13647.479       147.77806       14.969300       1
       13670.413       150.89415       14.838704       1
       13693.348       185.80458       15.043171       1
       13716.282       189.77083       15.149041       1
       13739.217       191.12608       15.112449       1
       13762.151       182.74335       15.249022       1
       13785.086       178.39328       14.864344       1
       13808.020       182.25211       15.127564       1
       13830.955       205.56785       15.234061       1
       13853.889       212.91095       15.395077       1
       13876.824       215.04348       15.232047       1
       13899.758       222.54621       15.290387       1
       13922.693       138.70777       13.248212       1
       13945.627       184.97220       14.951424       1
       13968.562       170.46297       14.640421       1
       13991.496       159.16963       14.717206       1
       14014.431       146.22411       14.273902       1
       14037.365       148.97112       14.463238       1
       14060.300       147.03352       14.197286       1
       14083.234       154.16660       14.370119       1
       14106.169       152.03085       14.078719       1
       14129.103       134.92920       14.091696       1
       14152.037       134.14867       13.915055       1
       14174.972       146.61069       4641978.9       1
       14197.906       150.78311       14.010825       1
       14220.841       143.07240       14.091604       1
       14243.775       153.53342       13.971552       1
       14266.710       143.72937       13.983469       1
       14289.644       132.72169       13.701164       1
       14312.579       137.34657       13.787229       1
       14335.513       126.98596       13.544957       1
       14358.448       122.32325       13.599432       1
       14381.382       127.31967       13.467942       1
       14404.317       128.44101       13.599448       1
       14427.251       130.82896       13.569956       1
       14450.186       144.48409       13.786165       1
       14473.120       141.98476       13.951587       1
       14496.055       118.90859       13.471180       1
       14518.989       146.10823       13.597414       1
       14541.924       71.929925       9.8363705       1
       14564.858       132.11636       13.493648       1
       14587.793       52.604178       9.0284828       1
       14610.727       143.50208       13.650980       1
       14633.662       115.75372       13.356397       1
       14656.596       129.52084       13.492748       1
       14679.531       114.33324       13.397250       1
       14702.465       65.941170       8.7538113       1
       14725.400       124.75984       13.552778       1
       14748.334       109.74642       13.273610       1
       14771.269       129.05805       13.656443       1
       14794.203       125.54658       13.394405       1
       14817.137       123.61934       13.525403       1
       14840.072       121.53016       13.362279       1
       14863.006       121.18314       13.413211       1
       14885.941       117.15744       13.185070       1
       14908.875       129.27537       13.391128       1
       14931.810       122.02483       13.191544       1
       14954.744       120.89769       13.274156       1
       14977.679       109.78465       13.002018       1
       15000.613       125.35197       13.260943       1
       15023.548       131.65086       13.788645       1
       15046.482       123.03416       13.223595       1
       15069.417       136.08403       6183066.4       1
       15092.351       128.36220       13.146178       1
       15115.286       122.88303       13.099584       1
       15138.220       131.88685       13.242851       1
       15161.155       123.55320       13.040492       1
       15184.089       129.04020       13.188622       1
       15207.024       108.25481       12.837666       1
       15229.958       107.97382       12.889664       1
       15252.893       114.31800       12.783413       1
       15275.827       111.10810       13.006825       1
       15298.762       113.62343       13.438308       1
       15321.696       117.06245       13.034185       1
       15344.631       108.72716       12.781288       1
       15367.565       125.38775       13.202722       1
       15390.500       108.38053       12.897775       1
       15413.434       120.64955       13.046840       1
       15436.369       109.38514       12.867592       1
       15459.303       115.28097       13.097821       1
       15482.238       104.79101       12.871686       1
       15505.172       126.14154       13.118154       1
       15528.106       111.06334       12.921244       1
       15551.041       110.66011       13.084493       1
       15573.975       105.47457       12.900904       1
       15596.910       134.60890       6164598.7       1
       15619.844       135.33470       13.175143       1
       15642.779       122.81310       13.128285       1
       15665.713       114.25025       12.922321       1
       15688.648       114.96630       12.998961       1
       15711.582       117.18605       12.869621       1
       15734.517       111.01547       12.913535       1
       15757.451       107.87903       13.806427       1
       15780.386       112.29509       12.835066       1
       15803.320       123.66929       14.027850       1
       15826.255       105.61521       12.805094       1
       15849.189       113.15433       13.889735       1
       15872.124       97.352022       12.755998       1
       15895.058       106.65750       12.760731       1
       15917.993       113.17326       12.950575       1
       15940.927       102.11635       12.748178       1
       15963.862       100.19972       12.799421       1
       15986.796       108.56809       12.858262       1
       16009.731       108.95038       12.982618       1
       16032.665       106.15020       12.872779       1
       16055.600       114.30742       13.010147       1
       16078.534       105.89674       12.841835       1
       16101.469       103.86177       12.964448       1
       16124.403       91.572652       13.081439       1
       16147.338       104.10640       13.086307       1
       16170.272       97.278952       13.263260       1
       16193.206       94.395342       13.094757       1
       16216.141       91.891921       12.955363       1
       16239.075       93.758064       13.161388       1
       16262.010       106.03738       13.212546       1
       16284.944       102.08987       13.319750       1
       16307.879       104.97985       13.238892       1
       16330.813       90.138572       13.257072       1
       16353.748       102.37176       13.350522       1
       16376.682       80.044454       11.850566       1
       16399.617       95.231858       13.549775       1
       16422.551       80.611223       11.838610       1
       16445.486       96.930481       13.382460       1
       16468.420       90.237596       13.454709       1
       16491.355       99.310645       13.675750       1
       16514.289       90.339156       13.784592       1
       16537.224       97.465103       14.307687       1
       16560.158       98.115920       14.885858       1
       16583.093       91.717481       15.544684       1
       16606.027       99.536675       16.645657       1
       16628.962       103.39906       18.219631       1
       16651.896       107.59407       19.406135       1
       16674.831       110.47577       21.188674       1
       16697.765       114.79753       23.632294       1
       16720.700       84.045352       22.276442       1
       16743.634       140.61067       30.236877       1
       16766.569       150.52350       34.041987       0
       16789.503       127.52525       38.612855       0
       16812.438       181.07546       44.060593       0
       16835.372       184.55547       50.233092       0
       16858.307       149.81123       55.421977       0
       16881.241       183.71291       62.663504       0
       16904.175       180.35723       71.001146       0
       16927.110       213.13419       77.885081       0
       16950.044       230.68494       85.955903       0
       16972.979       137.73092       95.810501       0
       16995.913       232.52682       107.20630       0
       17018.848       209.41544       120.44502       0
       17041.782       259.65808       136.55001       0
       17064.717       293.87040       147.72129       0
       17087.651       278.87889       164.34352       0
       17110.586       224.24743       185.23787       0
       17133.520       271.76103       220.73200       0
       17156.455       566.15053       248.35549       0
       17179.389       768.58950       284.87342       0
       17202.324       595.15857       324.52480       0
       17225.258       541.26606       378.33952       0
       17248.193       787.58862       413.74144       0
       17271.127       890.70892       455.70727       0
       17294.062       1135.9005       510.78284       0
       17316.996       794.13276       551.33565       0
