#WAVELENGTH FLUX ERROR MASK
       10184.372       1497.7427       189.55878       0
       10207.306       662.80814       177.79810       0
       10230.241       467.49142       165.35563       0
       10253.175       2259.3117       152.12426       0
       10276.110       2160.9908       143.55124       0
       10299.044       1231.7116       131.19690       0
       10321.979       1039.6798       110.71162       0
       10344.913       950.91686       119.02044       0
       10367.848       1333.3988       114.17787       0
       10390.782       909.20765       107.04601       0
       10413.717       1928.4687       104.94738       0
       10436.651       876.38869       96.291505       0
       10459.586       1131.1789       91.608706       0
       10482.520       1192.7619       83.154422       0
       10505.455       523.21931       76.723029       0
       10528.389       568.86050       69.968393       0
       10551.324       453.45618       66.021846       0
       10574.258       181.27111       61.174573       0
       10597.193       294.86462       58.451252       0
       10620.127       289.83801       54.835654       0
       10643.062       412.27586       52.886404       0
       10665.996       296.01530       49.567960       0
       10688.931       244.93687       46.695090       0
       10711.865       196.26136       42.878234       0
       10734.799       276.16825       39.742998       0
       10757.734       217.38347       35.926767       0
       10780.668       181.52445       33.237973       0
       10803.603       141.37344       30.881868       0
       10826.537       146.29593       28.398763       0
       10849.472       134.60895       26.491268       0
       10872.406       165.41542       25.523856       0
       10895.341       79.402148       20.156162       0
       10918.275       159.02699       23.658497       0
       10941.210       144.10178       22.620664       0
       10964.144       151.01740       22.026073       0
       10987.079       116.19004       21.129690       0
       11010.013       107.08584       20.302517       1
       11032.948       99.689942       19.648994       1
       11055.882       127.18966       19.317716       1
       11078.817       118.05374       18.668553       1
       11101.751       119.42443       18.464521       1
       11124.686       112.79766       17.793287       1
       11147.620       101.77161       17.775568       1
       11170.555       102.53269       17.361890       1
       11193.489       111.58156       17.507382       1
       11216.424       111.49064       17.269695       1
       11239.358       130.50521       17.418686       1
       11262.293       121.74491       17.201557       1
       11285.227       97.122248       17.008646       1
       11308.162       122.24915       16.896870       1
       11331.096       114.74968       17.000341       1
       11354.031       116.49625       16.818007       1
       11376.965       119.14395       16.831512       1
       11399.900       112.49292       16.657486       1
       11422.834       126.55075       16.574997       1
       11445.768       121.18915       16.568891       1
       11468.703       104.76124       16.180528       1
       11491.637       125.50136       16.652691       1
       11514.572       101.72537       16.502172       1
       11537.506       135.71181       16.404017       1
       11560.441       112.60283       16.482194       1
       11583.375       114.09533       16.334568       1
       11606.310       121.25506       16.434243       1
       11629.244       120.48033       16.233145       1
       11652.179       113.36033       16.319209       1
       11675.113       119.72231       16.131485       1
       11698.048       128.28387       16.208301       1
       11720.982       109.63988       16.235161       1
       11743.917       114.96398       15.939625       1
       11766.851       107.37558       15.631948       1
       11789.786       105.01570       15.691481       1
       11812.720       118.40446       15.659656       1
       11835.655       124.00272       15.563236       1
       11858.589       112.28468       15.131495       1
       11881.524       107.18694       15.113705       1
       11904.458       117.69239       15.102369       1
       11927.393       109.45235       14.984953       1
       11950.327       109.85134       14.874585       1
       11973.262       124.71941       15.278804       1
       11996.196       121.49253       14.864599       1
       12019.131       114.48906       15.086940       1
       12042.065       108.87682       14.690984       1
       12065.000       125.00598       15.082081       1
       12087.934       117.78142       14.900979       1
       12110.868       129.20047       15.017712       1
       12133.803       114.42269       14.663885       1
       12156.737       105.23485       14.783381       1
       12179.672       118.48880       14.590354       1
       12202.606       129.46444       14.929266       1
       12225.541       126.28153       14.649657       1
       12248.475       122.41177       15.043972       1
       12271.410       116.43077       14.720441       1
       12294.344       122.28498       14.665500       1
       12317.279       112.45020       14.273619       1
       12340.213       120.15589       15.326358       1
       12363.148       109.65126       14.255487       1
       12386.082       117.40429       14.499061       1
       12409.017       85.128526       12.320878       1
       12431.951       106.81095       14.403337       1
       12454.886       111.85501       14.524314       1
       12477.820       109.14310       14.601133       1
       12500.755       139.91991       15.023750       1
       12523.689       123.77203       14.661909       1
       12546.624       135.85206       4414062.2       1
       12569.558       87.231134       13.096076       1
       12592.493       112.07528       14.460189       1
       12615.427       106.36178       14.473752       1
       12638.362       125.80479       14.614765       1
       12661.296       115.32315       14.533187       1
       12684.231       120.94960       14.479159       1
       12707.165       120.74649       14.485928       1
       12730.100       121.07868       14.479940       1
       12753.034       113.49163       14.418360       1
       12775.968       112.63840       14.753628       1
       12798.903       106.89191       14.583711       1
       12821.837       113.95784       14.764903       1
       12844.772       118.44835       14.838488       1
       12867.706       140.59347       14.881083       1
       12890.641       115.99091       14.562647       1
       12913.575       126.31849       14.787094       1
       12936.510       129.26591       14.434272       1
       12959.444       145.41356       14.443580       1
       12982.379       127.51899       14.152173       1
       13005.313       127.05094       14.090185       1
       13028.248       110.15981       13.889910       1
       13051.182       110.19552       14.142994       1
       13074.117       118.69241       13.932406       1
       13097.051       106.63183       14.066697       1
       13119.986       93.244276       4649547.1       1
       13142.920       113.02748       13.560742       1
       13165.855       96.861302       13.512122       1
       13188.789       70.258744       11.931213       1
       13211.724       111.95635       13.646832       1
       13234.658       105.89552       13.491137       1
       13257.593       101.89023       13.630969       1
       13280.527       96.361404       13.894294       1
       13303.462       76.847341       12.267467       1
       13326.396       104.79247       13.707746       1
       13349.331       107.38760       13.818992       1
       13372.265       105.88313       13.671678       1
       13395.200       117.15483       13.834382       1
       13418.134       109.68711       13.499739       1
       13441.069       119.75647       13.654068       1
       13464.003       112.00634       13.334694       1
       13486.937       102.61711       13.303825       1
       13509.872       106.83999       13.183522       1
       13532.806       111.72400       13.329377       1
       13555.741       111.72658       13.145450       1
       13578.675       110.63801       4476233.6       1
       13601.610       115.93834       13.087312       1
       13624.544       109.38612       13.136163       1
       13647.479       94.067975       11.150536       1
       13670.413       130.38259       13.447141       1
       13693.348       152.28280       13.544093       1
       13716.282       204.46116       14.112287       1
       13739.217       192.61169       13.921993       1
       13762.151       169.74085       13.834801       1
       13785.086       151.01317       13.490070       1
       13808.020       146.42340       13.567100       1
       13830.955       136.75878       13.424204       1
       13853.889       147.23050       13.592597       1
       13876.824       144.31293       13.389902       1
       13899.758       134.66142       13.492085       1
       13922.693       95.222544       11.788722       1
       13945.627       118.03003       13.255832       1
       13968.562       107.94521       14.148465       1
       13991.496       123.66589       13.286355       1
       14014.431       112.15798       13.024407       1
       14037.365       112.26209       13.068609       1
       14060.300       111.25338       12.981931       1
       14083.234       117.04577       12.986773       1
       14106.169       79.532447       11.417197       1
       14129.103       113.83234       13.056263       1
       14152.037       104.21841       12.822230       1
       14174.972       103.85394       12.931740       1
       14197.906       94.442711       12.752690       1
       14220.841       94.869778       13.057851       1
       14243.775       97.987870       12.689628       1
       14266.710       106.19227       12.897560       1
       14289.644       106.09909       12.747327       1
       14312.579       95.693271       12.725745       1
       14335.513       94.114976       12.565510       1
       14358.448       102.70818       12.723995       1
       14381.382       95.258097       12.482853       1
       14404.317       97.055458       12.794291       1
       14427.251       95.659125       12.821503       1
       14450.186       97.648222       12.771099       1
       14473.120       102.38663       12.842403       1
       14496.055       106.52418       12.836521       1
       14518.989       108.84132       12.865068       1
       14541.924       93.792790       12.738371       1
       14564.858       98.300976       12.719256       1
       14587.793       86.656064       12.636988       1
       14610.727       97.446175       12.780763       1
       14633.662       87.891674       12.688148       1
       14656.596       106.49430       13.108589       1
       14679.531       93.614367       12.770467       1
       14702.465       99.620647       12.835700       1
       14725.400       99.199026       12.832758       1
       14748.334       90.186566       3850488.6       1
       14771.269       103.09498       12.889032       1
       14794.203       96.510270       12.812973       1
       14817.137       96.464221       12.754541       1
       14840.072       93.061133       12.899050       1
       14863.006       92.141670       12.658316       1
       14885.941       95.530417       12.680631       1
       14908.875       93.533049       12.621186       1
       14931.810       96.669828       12.706441       1
       14954.744       100.33646       12.699419       1
       14977.679       94.079647       12.650594       1
       15000.613       93.782989       12.800492       1
       15023.548       89.484905       12.542000       1
       15046.482       110.14405       12.575845       1
       15069.417       88.671530       12.386881       1
       15092.351       86.313661       12.355537       1
       15115.286       90.313409       12.132053       1
       15138.220       84.394068       12.293495       1
       15161.155       91.835430       12.155655       1
       15184.089       76.386336       12.194544       1
       15207.024       88.640610       12.323119       1
       15229.958       95.975433       12.345170       1
       15252.893       77.756695       11.879834       1
       15275.827       86.822475       12.310297       1
       15298.762       91.632198       12.325287       1
       15321.696       90.184007       12.304275       1
       15344.631       92.317725       12.349901       1
       15367.565       97.925601       12.441429       1
       15390.500       93.847216       12.211805       1
       15413.434       99.220449       12.467803       1
       15436.369       81.370873       12.054874       1
       15459.303       90.329719       12.351522       1
       15482.238       82.008146       12.066912       1
       15505.172       87.666174       12.362194       1
       15528.106       87.820744       12.364242       1
       15551.041       87.340811       12.358455       1
       15573.975       86.872049       12.109510       1
       15596.910       100.46971       12.487712       1
       15619.844       83.958552       12.065614       1
       15642.779       82.820969       12.275380       1
       15665.713       109.05849       12.334005       1
       15688.648       66.951908       12.143283       1
       15711.582       79.997796       12.167241       1
       15734.517       79.452483       12.287227       1
       15757.451       84.778141       13.324667       1
       15780.386       87.213964       12.397309       1
       15803.320       82.980679       13.261010       1
       15826.255       83.929009       12.368365       1
       15849.189       89.036673       13.344747       1
       15872.124       84.840447       12.367084       1
       15895.058       81.418419       12.549109       1
       15917.993       88.785557       12.348096       1
       15940.927       86.581512       12.368071       1
       15963.862       94.602017       12.479193       1
       15986.796       73.512588       12.225564       1
       16009.731       91.847350       12.475354       1
       16032.665       72.461987       12.189164       1
       16055.600       78.443670       13.348644       1
       16078.534       72.571096       12.490984       1
       16101.469       69.348335       12.295846       1
       16124.403       80.556408       12.612378       1
       16147.338       66.929251       12.271504       1
       16170.272       81.745054       12.418800       1
       16193.206       77.201597       12.462910       1
       16216.141       68.910569       12.599475       1
       16239.075       77.053153       12.492038       1
       16262.010       75.543603       12.456256       1
       16284.944       74.502445       12.558272       1
       16307.879       80.545560       12.535470       1
       16330.813       70.995037       12.518214       1
       16353.748       87.101919       12.602262       1
       16376.682       78.244683       12.597361       1
       16399.617       80.403336       12.531825       1
       16422.551       66.361009       12.561401       1
       16445.486       67.491516       12.455552       1
       16468.420       66.678115       12.653478       1
       16491.355       65.942930       12.893794       1
       16514.289       73.314652       12.911051       1
       16537.224       66.633568       12.939906       1
       16560.158       81.019543       13.385332       1
       16583.093       76.258556       13.474064       1
       16606.027       77.911048       14.021619       1
       16628.962       49.929302       12.078637       1
       16651.896       78.438933       15.064830       1
       16674.831       90.887444       15.751303       1
       16697.765       78.763216       16.581151       1
       16720.700       108.37510       17.607979       1
       16743.634       106.98045       18.804743       1
       16766.569       121.92359       19.882744       0
       16789.503       104.49920       21.079813       0
       16812.438       98.681049       22.873582       0
       16835.372       124.55611       24.028575       0
       16858.307       157.86987       25.480341       0
       16881.241       155.66549       27.033502       0
       16904.175       175.14661       28.450845       0
       16927.110       156.06484       30.101635       0
       16950.044       238.43773       32.367544       0
       16972.979       146.97544       30.049198       0
       16995.913       46.111206       30.881552       0
       17018.848       257.41022       36.970012       0
       17041.782       242.09678       35.029797       0
       17064.717       326.61766       41.296824       0
       17087.651       235.86665       38.960895       0
       17110.586       385.97397       45.966750       0
       17133.520       570.48989       48.879507       0
       17156.455       370.03572       53.060178       0
       17179.389       340.92361       55.522148       0
       17202.324       524.71967       60.755128       0
       17225.258       392.96942       63.191542       0
       17248.193       471.27293       67.680110       0
       17271.127       559.90015       73.110549       0
       17294.062       1012.8556       75.808499       0
       17316.996       1078.6540       78.344455       0
