#WAVELENGTH FLUX ERROR MASK
       7525.4837       3801.2111       15302.985       0
       7537.8369       2825.9713       10374.233       0
       7550.1900       8030.8777       11069.859       0
       7562.5431       3638.4279       6539.4012       0
       7574.8962       682.83970       5904.8496       0
       7587.2494       4488.7967       4139.3789       0
       7599.6025       2107.0682       4193.1123       0
       7611.9556       2838.4924       2870.2426       0
       7624.3087       2250.6076       3031.7052       0
       7636.6619       3045.9332       2120.6735       0
       7649.0150       2501.8551       2255.2755       0
       7661.3681       1904.1372       1543.3854       0
       7673.7212       1361.1639       1591.5832       0
       7686.0744       1533.4500       1070.9335       0
       7698.4275       1187.8573       1106.3873       0
       7710.7806       970.74110       758.12547       0
       7723.1337       748.82728       825.03424       0
       7735.4869       553.18190       590.22216       0
       7747.8400       647.76752       665.56947       0
       7760.1931       500.52118       492.20524       0
       7772.5463       270.60959       560.21773       0
       7784.8994       384.55883       415.76963       0
       7797.2525       453.10409       473.28188       0
       7809.6056       310.02183       343.71641       0
       7821.9588       268.13711       381.59105       0
       7834.3119       391.85291       309.45751       0
       7846.6650       282.59859       306.36488       0
       7859.0181       324.05309       224.65164       0
       7871.3713       208.11703       238.78565       0
       7883.7244       163.77157       187.61309       0
       7896.0775       163.45616       216.84559       0
       7908.4306       94.902056       163.80154       0
       7920.7838       132.41806       192.93724       0
       7933.1369       217.96656       148.02174       0
       7945.4900       91.047407       173.82602       0
       7957.8431       129.14735       126.03143       0
       7970.1963       245.61211       160.73010       0
       7982.5494       205.44727       124.03716       0
       7994.9025       73.299974       139.34607       0
       8007.2556       176.41757       116.03757       0
       8019.6088       167.27895       139.13488       0
       8031.9619       146.44706       111.57836       0
       8044.3150       162.39372       132.30800       0
       8056.6682       145.06709       106.93589       0
       8069.0213       138.23051       127.41634       0
       8081.3744       159.12065       103.57594       0
       8093.7275       91.759309       122.47818       0
       8106.0807       143.97501       97.923152       0
       8118.4338       104.10062       118.50719       0
       8130.7869       158.66500       94.304397       0
       8143.1400       116.03553       114.21506       0
       8155.4932       155.96412       91.134497       1
       8167.8463       166.27549       111.22131       1
       8180.1994       80.329479       97.569095       1
       8192.5525       97.146324       106.38607       1
       8204.9057       137.99819       84.669092       1
       8217.2588       145.07717       102.70096       1
       8229.6119       142.28035       82.331099       1
       8241.9650       106.77015       96.992194       1
       8254.3182       132.02180       78.377745       1
       8266.6713       111.74376       91.715002       1
       8279.0244       118.98575       72.473183       1
       8291.3776       96.445363       87.604744       1
       8303.7307       123.02696       78.159386       1
       8316.0838       142.93554       84.451630       1
       8328.4369       98.616441       66.605574       1
       8340.7901       149.97717       81.671340       1
       8353.1432       27.269686       64.329816       1
       8365.4963       115.71075       79.011703       1
       8377.8494       157.81578       63.599525       1
       8390.2026       140.58552       77.017105       1
       8402.5557       140.40620       61.836985       1
       8414.9088       48.237420       74.353750       1
       8427.2619       76.489944       59.515715       1
       8439.6151       109.52995       72.863566       1
       8451.9682       90.505338       65.464448       1
       8464.3213       104.77284       71.002647       1
       8476.6744       134.93891       56.437617       1
       8489.0276       144.53646       69.542489       1
       8501.3807       121.07729       54.992500       1
       8513.7338       81.004292       67.156359       1
       8526.0869       127.28259       56.116106       1
       8538.4401       127.77646       66.456191       1
       8550.7932       156.78548       53.327228       1
       8563.1463       131.17590       65.836818       1
       8575.4995       184.31044       52.985230       1
       8587.8526       63.151472       59.948356       1
       8600.2057       131.26895       52.147818       1
       8612.5588       150.10388       64.604849       1
       8624.9120       148.41302       52.043656       1
       8637.2651       138.60724       63.937293       1
       8649.6182       143.37578       51.314919       1
       8661.9713       144.70715       63.043144       1
       8674.3245       148.42974       66.053198       1
       8686.6776       148.99031       61.192026       1
       8699.0307       153.00192       58.997979       1
       8711.3838       154.07753       59.167486       1
       8723.7370       130.21819       48.271529       1
       8736.0901       114.96326       56.732592       1
       8748.4432       124.47277       45.119706       1
       8760.7963       132.60322       55.404092       1
       8773.1495       179.39767       45.935144       1
       8785.5026       132.77127       54.154243       1
       8797.8557       144.21906       43.448549       1
       8810.2089       111.30536       53.010489       1
       8822.5620       170.78182       42.875081       1
       8834.9151       144.25567       52.197144       1
       8847.2682       118.43135       41.493830       1
       8859.6214       156.21802       51.310800       1
       8871.9745       169.35171       40.896126       1
       8884.3276       156.91126       53.511962       1
       8896.6807       119.60105       40.062566       1
       8909.0339       123.30061       52.350780       1
       8921.3870       142.57976       44.296403       1
       8933.7401       165.53433       51.997684       1
       8946.0932       126.84132       39.117879       1
       8958.4464       135.82735       47.785008       1
       8970.7995       129.54692       37.909392       1
       8983.1526       139.32176       46.813054       1
       8995.5057       106.19262       37.091127       1
       9007.8589       120.30279       46.124665       1
       9020.2120       121.22858       36.908191       1
       9032.5651       91.439365       42.940075       1
       9044.9182       105.72766       36.643660       1
       9057.2714       136.82589       48.143408       1
       9069.6245       126.41086       36.722845       1
       9081.9776       139.20228       45.007445       1
       9094.3308       121.37809       35.808776       1
       9106.6839       129.37017       44.175506       1
       9119.0370       93.754206       39.355218       1
       9131.3901       75.665651       40.032867       1
       9143.7433       130.86722       34.392466       1
       9156.0964       97.859708       41.963194       1
       9168.4495       102.81819       33.553967       1
       9180.8026       115.72289       41.522622       1
       9193.1558       111.21174       33.091264       1
       9205.5089       107.92289       40.644334       1
       9217.8620       86.856925       36.477955       1
       9230.2151       108.49633       40.016003       1
       9242.5683       116.16059       32.084216       1
       9254.9214       106.21668       39.243526       1
       9267.2745       113.63995       31.753719       1
       9279.6276       123.20900       39.190959       1
       9291.9808       113.30372       31.408758       1
       9304.3339       113.83267       38.191735       1
       9316.6870       94.658275       32.190377       1
       9329.0402       125.93419       38.305903       1
       9341.3933       116.41463       31.181476       1
       9353.7464       101.64966       37.621427       1
       9366.0995       110.12831       30.442295       1
       9378.4527       108.65884       37.477250       1
       9390.8058       123.90739       30.180689       1
       9403.1589       118.27225       36.946552       1
       9415.5120       114.79076       29.789853       1
       9427.8652       103.72770       36.239044       1
       9440.2183       104.24715       29.124320       1
       9452.5714       86.853108       33.461378       1
       9464.9245       117.71998       28.988858       1
       9477.2777       127.61735       35.790913       1
       9489.6308       111.70235       28.565735       1
       9501.9839       101.15075       35.134324       1
       9514.3370       104.13004       29.260641       1
       9526.6902       121.27894       35.096281       1
       9539.0433       100.94079       27.953239       1
       9551.3964       88.912567       34.286070       1
       9563.7495       112.13744       27.873353       1
       9576.1027       109.17618       34.212652       1
       9588.4558       98.679943       30.112289       1
       9600.8089       97.695705       33.624698       1
       9613.1621       107.78951       27.182630       1
       9625.5152       105.37373       33.537288       1
       9637.8683       109.08215       27.817989       1
       9650.2214       110.68463       33.437398       1
       9662.5746       102.33397       26.770318       1
       9674.9277       93.229537       32.952852       1
       9687.2808       104.55911       26.588821       1
       9699.6339       90.870797       32.613008       1
       9711.9871       106.26500       26.345853       1
       9724.3402       110.09790       32.462484       1
       9736.6933       97.166443       25.947097       1
       9749.0464       100.70477       32.082286       1
       9761.3996       100.15121       25.758822       1
       9773.7527       99.369284       31.698172       1
       9786.1058       109.85886       25.537410       1
       9798.4589       118.67093       31.632043       1
       9810.8121       106.96636       25.518123       1
       9823.1652       103.53618       31.500153       1
       9835.5183       104.52698       25.343606       1
       9847.8715       81.584408       31.163904       1
       9860.2246       110.74480       25.206134       1
       9872.5777       97.411992       31.128319       1
       9884.9308       73.881839       25.599017       1
       9897.2840       122.09337       33.387857       1
       9909.6371       85.394669       24.835173       1
       9921.9902       88.973381       8350947.4       1
       9934.3433       103.72880       27.625779       1
       9946.6965       93.636239       30.548543       1
       9959.0496       101.08142       24.541097       1
       9971.4027       93.105538       29.996395       1
       9983.7558       78.564041       24.571972       1
       9996.1090       86.282726       29.539277       1
       10008.462       96.138855       23.766124       1
       10020.815       77.494504       29.098253       1
       10033.168       83.394344       23.529074       1
       10045.521       96.566248       29.144840       1
       10057.875       69.959792       23.336042       1
       10070.228       83.306401       29.032987       1
       10082.581       78.102572       23.424901       1
       10094.934       79.069155       28.975255       1
       10107.287       85.273066       23.374928       1
       10119.640       49.414261       26.467378       1
       10131.993       76.230170       23.076693       1
       10144.346       79.011467       8345306.9       1
       10156.700       81.414886       22.985913       1
       10169.053       71.953317       28.265833       1
       10181.406       77.298648       23.784714       1
       10193.759       94.017015       28.519070       1
       10206.112       65.372346       23.552083       1
       10218.465       96.634369       28.293635       1
       10230.818       78.358805       23.077938       1
       10243.171       99.705224       28.051388       1
       10255.525       79.601766       22.214678       1
       10267.878       86.613805       27.515282       1
       10280.231       73.199966       21.943195       1
       10292.584       80.627375       27.222892       1
       10304.937       77.493715       22.531703       1
       10317.290       76.322465       26.942078       1
       10329.643       76.460352       22.192161       1
       10341.996       83.042333       28.863803       1
       10354.350       94.044835       22.669281       1
       10366.703       109.34598       28.924432       1
       10379.056       102.40690       23.545101       1
       10391.409       67.454007       24.936087       1
       10403.762       89.743126       23.065085       1
       10416.115       85.344146       26.521253       1
       10428.468       85.840976       22.201983       1
       10440.822       87.405536       26.453857       1
       10453.175       88.245409       21.313401       1
       10465.528       86.396018       26.328512       1
       10477.881       85.432013       22.037081       1
       10490.234       83.545243       26.279954       1
       10502.587       77.652070       21.164144       1
       10514.940       99.912125       26.485989       1
       10527.293       92.066884       21.304230       1
       10539.647       82.335553       26.360168       1
       10552.000       94.978574       21.352683       1
       10564.353       95.164580       26.294801       1
       10576.706       109.22840       21.403780       1
       10589.059       109.55948       26.332481       1
       10601.412       105.11668       21.221952       1
       10613.765       78.970487       25.903496       1
       10626.118       96.195209       21.573803       1
       10638.472       99.280680       25.872294       1
       10650.825       107.90399       20.771622       1
       10663.178       131.26443       25.966499       1
       10675.531       155.10865       21.043355       1
       10687.884       126.41048       24.476108       1
       10700.237       160.51835       23.685716       1
       10712.590       117.64269       25.665446       1
       10724.943       89.765389       20.505779       1
       10737.297       91.531322       25.369783       1
       10749.650       77.506614       20.334264       1
       10762.003       89.320921       25.343096       1
       10774.356       67.825690       20.143640       1
       10786.709       75.535609       25.065765       1
       10799.062       65.883068       20.103344       1
       10811.415       77.754837       25.013312       1
       10823.768       73.578557       20.105593       1
       10836.122       67.651485       24.870377       1
       10848.475       66.645796       20.248043       1
       10860.828       36.905378       24.467671       1
       10873.181       64.778390       19.844664       1
       10885.534       73.747543       24.723747       1
       10897.887       70.988582       19.817320       1
       10910.240       62.996503       24.452900       1
       10922.593       70.297633       20.610196       1
       10934.947       61.756548       24.462455       1
       10947.300       75.235906       19.881309       1
       10959.653       54.271978       24.391280       1
       10972.006       73.330334       19.851579       1
       10984.359       60.613256       24.458290       1
       10996.712       65.085872       19.746935       1
       11009.065       53.714768       24.453276       1
       11021.418       62.839229       19.686819       1
       11033.772       70.214803       24.474808       1
       11046.125       56.507757       19.406140       1
       11058.478       72.667717       24.246513       1
       11070.831       67.692825       19.572371       1
       11083.184       60.434216       24.042424       1
       11095.537       48.265732       19.469259       1
       11107.890       52.826529       24.141656       1
       11120.243       61.878134       19.576718       1
       11132.597       70.025535       24.283272       1
       11144.950       69.212707       19.720906       1
       11157.303       61.909020       24.243904       1
       11169.656       60.798011       19.553890       1
       11182.009       43.890910       24.043452       1
       11194.362       73.287747       19.708693       1
       11206.715       60.858840       24.187496       0
       11219.068       56.842305       19.477717       0
       11231.422       48.299187       24.056229       0
       11243.775       64.465101       19.562159       0
       11256.128       63.494877       24.286334       0
       11268.481       61.457924       19.588162       0
       11280.834       74.123658       24.470118       0
       11293.187       60.193399       19.557292       0
       11305.540       62.791072       24.335379       0
       11317.893       44.670164       19.685112       0
       11330.247       56.815903       24.931244       0
       11342.600       67.346789       20.853918       0
       11354.953       75.870400       26.985969       0
       11367.306       60.390388       22.943819       0
       11379.659       52.841966       30.482886       0
       11392.012       53.263379       26.861762       0
       11404.365       80.401651       37.443871       0
       11416.718       73.119821       33.654939       0
       11429.072       103.61279       47.361254       0
       11441.425       60.476322       43.308438       0
       11453.778       59.742422       61.120723       0
       11466.131       54.201135       55.603273       0
       11478.484       121.24800       82.622919       0
       11490.837       57.682258       69.083100       0
       11503.190       76.738257       101.63495       0
       11515.543       149.53229       86.013266       0
       11527.897       155.94090       120.65942       0
       11540.250       99.219616       112.27055       0
       11552.603      -27.526510       45816012.       0
       11564.956       87.970904       160.88009       0
       11577.309      -75.195880       231.38605       0
       11589.662       137.38850       247.79202       0
       11602.015      -31.712379       381.96647       0
       11614.368       179.73553       420.86353       0
       11626.722       101.76980       578.28559       0
       11639.075       227.20943       567.52101       0
       11651.428       402.47327       852.57255       0
       11663.781       164.18249       869.98176       0
       11676.134       119.69346       1410.0921       0
       11688.487       704.23706       1488.4702       0
       11700.840       1729.6784       2417.1210       0
       11713.194       1403.4465       2578.2412       0
       11725.547       1769.0854       4056.7786       0
       11737.900      -1134.3797       3715.5205       0
       11750.253       3164.9473       4867.8921       0
       11762.606       1797.7076       3899.6235       0
       11774.959     -0.90226008       4685.0837       0
       11787.312       1364.3711       3696.9231       0
       11799.665      -1092.2242       4587.2266       0
       11812.019       1527.5172       3945.0701       0
       11824.372      -1897.8825       5362.0287       0
       11836.725       1199.0920       5069.5719       0
       11849.078       1769.1706       7458.0036       0
       11861.431      -262.49290       7194.9412       0
       11873.784       330.72639       10468.289       0
       11886.137       469.87198       9687.4104       0
       11898.490      -7049.7263       12642.553       0
       11910.844       3086.4072       12769.700       0
       11923.197      -4050.4482       19090.095       0
       11935.550       1507.1865       19738.631       0
       11947.903       436.17966       28730.810       0
       11960.256      -4830.2666       26941.167       0
