#WAVELENGTH FLUX ERROR MASK
       10184.372       3171.9620       189.78723       0
       10207.306       2800.0796       179.02001       0
       10230.241      -2845.6108       164.80145       0
       10253.175       4420.3244       156.30686       0
       10276.110       879.37982       143.98912       0
       10299.044       1972.3155       132.91296       0
       10321.979       1670.3870       126.33842       0
       10344.913      -16.734061       117.23612       0
       10367.848       969.72525       115.15932       0
       10390.782       1360.1275       109.58601       0
       10413.717       505.93725       104.29757       0
       10436.651       285.90367       114.58152       0
       10459.586      -254.96806       90.502430       0
       10482.520       261.56507       98.097430       0
       10505.455       593.05681       76.978193       0
       10528.389       344.56674       70.789032       0
       10551.324       500.86098       66.199085       0
       10574.258       552.40797       62.039445       0
       10597.193       445.52130       58.556573       0
       10620.127       447.31850       55.570277       0
       10643.062       402.94419       52.971189       0
       10665.996       544.32011       50.077265       0
       10688.931       375.19464       47.168355       0
       10711.865       388.74888       43.108753       0
       10734.799       232.17717       39.744325       0
       10757.734       388.78717       36.464556       0
       10780.668       329.33338       33.602486       0
       10803.603       276.50111       30.634315       0
       10826.537       188.40854       28.514139       0
       10849.472       209.99048       26.806639       0
       10872.406       192.36773       25.640389       0
       10895.341       257.35385       24.703025       0
       10918.275       183.38043       23.773508       0
       10941.210       206.76576       22.896171       0
       10964.144       203.47301       22.377202       0
       10987.079       184.87953       21.334751       0
       11010.013       234.36693       20.999520       1
       11032.948       187.84655       20.175567       1
       11055.882       170.70120       19.610874       1
       11078.817       153.28751       18.928806       1
       11101.751       187.35569       18.922537       1
       11124.686       171.76516       18.332002       1
       11147.620       153.78739       18.164908       1
       11170.555       165.79321       17.851372       1
       11193.489       170.92302       17.916787       1
       11216.424       155.99659       17.561625       1
       11239.358       165.33075       6055989.8       1
       11262.293       149.07604       17.321296       1
       11285.227       155.50360       17.450005       1
       11308.162       160.30075       17.272841       1
       11331.096       190.94381       17.565227       1
       11354.031       140.22738       17.353795       1
       11376.965       170.45316       17.198523       1
       11399.900       118.32345       14.304351       1
       11422.834       185.59872       17.116057       1
       11445.768       170.91832       16.869204       1
       11468.703       170.17151       16.911388       1
       11491.637       176.34325       16.933863       1
       11514.572       162.84726       16.859068       1
       11537.506       178.76906       16.823285       1
       11560.441       148.46623       16.776569       1
       11583.375       164.08386       16.719707       1
       11606.310       163.32469       16.772000       1
       11629.244       174.59432       16.650787       1
       11652.179       168.38140       16.698842       1
       11675.113       185.37545       16.579583       1
       11698.048       158.60965       16.414814       1
       11720.982       119.83703       14.472590       1
       11743.917       161.26052       16.376032       1
       11766.851       157.27371       16.131991       1
       11789.786       173.42351       16.227135       1
       11812.720       162.65986       15.845310       1
       11835.655       149.05723       15.879509       1
       11858.589       148.73152       15.726723       1
       11881.524       157.56671       15.872851       1
       11904.458       157.86193       15.757458       1
       11927.393       168.38663       15.878855       1
       11950.327       162.72489       15.627580       1
       11973.262       162.17364       15.685696       1
       11996.196       151.00547       15.353577       1
       12019.131       190.77754       15.778963       1
       12042.065       138.15001       15.209057       1
       12065.000       146.96628       15.396865       1
       12087.934       173.69017       15.372304       1
       12110.868       168.87232       15.440561       1
       12133.803       152.38952       15.219962       1
       12156.737       172.74761       15.347542       1
       12179.672       156.48230       15.190783       1
       12202.606       171.14018       15.382721       1
       12225.541       141.59798       14.914423       1
       12248.475       146.83683       15.641216       1
       12271.410       152.10158       14.900251       1
       12294.344       156.41838       15.096053       1
       12317.279       161.92129       15.009522       1
       12340.213       155.17963       14.994420       1
       12363.148       144.35600       14.766415       1
       12386.082       166.67550       15.025794       1
       12409.017       173.27658       14.898852       1
       12431.951       147.92960       14.852477       1
       12454.886       136.89048       14.901530       1
       12477.820       141.14792       14.694750       1
       12500.755       160.04375       15.101430       1
       12523.689       176.72454       15.102847       1
       12546.624       145.05070       15.089322       1
       12569.558       130.68461       14.562665       1
       12592.493       140.82995       14.503893       1
       12615.427       145.76373       14.715411       1
       12638.362       153.03000       14.415403       1
       12661.296       141.77746       14.581243       1
       12684.231       142.21478       14.425153       1
       12707.165       128.24624       14.433416       1
       12730.100       159.51822       14.567961       1
       12753.034       151.42433       14.728796       1
       12775.968       148.49188       14.919620       1
       12798.903       87.312380       15.279485       1
       12821.837       46.261108       15.382170       1
       12844.772       154.91951       16.143448       1
       12867.706       213.93100       16.456560       1
       12890.641       189.55566       15.923513       1
       12913.575       154.48025       15.917590       1
       12936.510       214.65918       15.291195       1
       12959.444       211.88503       14.842386       1
       12982.379       166.16593       14.469086       1
       13005.313       159.63122       14.187055       1
       13028.248       152.36114       14.110177       1
       13051.182       150.53915       13.972549       1
       13074.117       142.20057       13.963454       1
       13097.051       136.02881       13.848220       1
       13119.986       116.45057       12.055318       1
       13142.920       142.32419       13.771375       1
       13165.855       147.98726       14.005299       1
       13188.789       155.58546       13.952193       1
       13211.724       138.78108       13.937967       1
       13234.658       106.24857       12.373641       1
       13257.593       144.11328       14.086814       1
       13280.527       132.66150       13.910148       1
       13303.462       157.46475       14.236096       1
       13326.396       158.18725       14.206188       1
       13349.331       160.62718       14.330471       1
       13372.265       166.85222       14.256846       1
       13395.200       164.97578       14.178681       1
       13418.134       173.54878       14.079058       1
       13441.069       159.43342       13.929640       1
       13464.003       153.43095       13.781473       1
       13486.937       133.45154       13.588335       1
       13509.872       141.18200       13.796060       1
       13532.806       142.11215       13.629478       1
       13555.741       139.12563       13.719156       1
       13578.675       139.81602       13.561801       1
       13601.610       141.59811       13.402586       1
       13624.544       145.66238       13.543558       1
       13647.479       147.77806       13.761047       1
       13670.413       150.89415       13.640857       1
       13693.348       185.80458       13.827398       1
       13716.282       189.77083       13.921923       1
       13739.217       191.12608       13.884071       1
       13762.151       182.74335       14.005411       1
       13785.086       178.39328       13.650562       1
       13808.020       182.25211       13.893607       1
       13830.955       205.56785       13.997887       1
       13853.889       212.91095       14.156368       1
       13876.824       215.04348       14.020460       1
       13899.758       222.54621       14.090812       1
       13922.693       138.70777       12.223898       1
       13945.627       184.97220       13.815145       1
       13968.562       170.46297       13.551829       1
       13991.496       159.16963       13.651463       1
       14014.431       146.22411       13.273016       1
       14037.365       148.97112       13.485009       1
       14060.300       147.03352       13.271683       1
       14083.234       154.16660       13.465479       1
       14106.169       152.03085       13.215212       1
       14129.103       134.92920       13.244113       1
       14152.037       134.14867       13.088856       1
       14174.972       146.61069       4369402.3       1
       14197.906       150.78311       13.202961       1
       14220.841       143.07240       13.298614       1
       14243.775       153.53342       13.212623       1
       14266.710       143.72937       13.254876       1
       14289.644       132.72169       13.016310       1
       14312.579       137.34657       13.124966       1
       14335.513       126.98596       12.913257       1
       14358.448       122.32325       12.978608       1
       14381.382       127.31967       12.860425       1
       14404.317       128.44101       12.989347       1
       14427.251       130.82896       12.963685       1
       14450.186       144.48409       13.171895       1
       14473.120       141.98476       13.333043       1
       14496.055       118.90859       12.877149       1
       14518.989       146.10823       13.000898       1
       14541.924       71.929925       9.4069545       1
       14564.858       132.11636       12.906998       1
       14587.793       52.604178       8.6370327       1
       14610.727       143.50208       13.059031       1
       14633.662       115.75372       12.775910       1
       14656.596       129.52084       12.903914       1
       14679.531       114.33324       12.809122       1
       14702.465       65.941170       8.3666763       1
       14725.400       124.75984       12.949332       1
       14748.334       109.74642       12.681163       1
       14771.269       129.05805       13.048019       1
       14794.203       125.54658       12.802788       1
       14817.137       123.61934       12.937773       1
       14840.072       121.53016       12.797855       1
       14863.006       121.18314       12.868101       1
       14885.941       117.15744       12.674905       1
       14908.875       129.27537       12.901410       1
       14931.810       122.02483       12.735285       1
       14954.744       120.89769       12.838626       1
       14977.679       109.78465       12.591592       1
       15000.613       125.35197       12.853405       1
       15023.548       131.65086       13.370341       1
       15046.482       123.03416       12.824112       1
       15069.417       136.08403       5996942.7       1
       15092.351       128.36220       12.752949       1
       15115.286       122.88303       12.715585       1
       15138.220       131.88685       12.865338       1
       15161.155       123.55320       12.680826       1
       15184.089       129.04020       12.837375       1
       15207.024       108.25481       12.505616       1
       15229.958       107.97382       12.563700       1
       15252.893       114.31800       12.463206       1
       15275.827       111.10810       12.681261       1
       15298.762       113.62343       13.100178       1
       15321.696       117.06245       12.702796       1
       15344.631       108.72716       12.452181       1
       15367.565       125.38775       12.857262       1
       15390.500       108.38053       12.553751       1
       15413.434       120.64955       12.691770       1
       15436.369       109.38514       12.510957       1
       15459.303       115.28097       12.729330       1
       15482.238       104.79101       12.506510       1
       15505.172       126.14154       12.744189       1
       15528.106       111.06334       12.551830       1
       15551.041       110.66011       12.709744       1
       15573.975       105.47457       12.530467       1
       15596.910       134.60890       5987980.1       1
       15619.844       135.33470       12.802367       1
       15642.779       122.81310       12.765655       1
       15665.713       114.25025       12.579532       1
       15688.648       114.96630       12.670902       1
       15711.582       117.18605       12.561482       1
       15734.517       111.01547       12.619631       1
       15757.451       107.87903       13.504072       1
       15780.386       112.29509       12.560645       1
       15803.320       123.66929       13.728727       1
       15826.255       105.61521       12.528535       1
       15849.189       113.15433       13.582266       1
       15872.124       97.352022       12.464796       1
       15895.058       106.65750       12.460304       1
       15917.993       113.17326       12.636312       1
       15940.927       102.11635       12.430380       1
       15963.862       100.19972       12.473832       1
       15986.796       108.56809       12.527966       1
       16009.731       108.95038       12.647976       1
       16032.665       106.15020       12.541457       1
       16055.600       114.30742       12.674013       1
       16078.534       105.89674       12.504385       1
       16101.469       103.86177       12.613481       1
       16124.403       91.572652       12.711178       1
       16147.338       104.10640       12.695223       1
       16170.272       97.278952       12.841697       1
       16193.206       94.395342       12.652823       1
       16216.141       91.891921       12.494018       1
       16239.075       93.758064       12.670502       1
       16262.010       106.03738       12.701066       1
       16284.944       102.08987       12.787537       1
       16307.879       104.97985       12.695343       1
       16330.813       90.138572       12.699793       1
       16353.748       102.37176       12.777601       1
       16376.682       80.044454       11.333579       1
       16399.617       95.231858       12.951434       1
       16422.551       80.611223       11.302084       1
       16445.486       96.930481       12.747095       1
       16468.420       90.237596       12.760383       1
       16491.355       99.310645       12.879311       1
       16514.289       90.339156       12.843016       1
       16537.224       97.465103       13.128880       1
       16560.158       98.115920       13.389600       1
       16583.093       91.717481       13.632971       1
       16606.027       99.536675       14.158974       1
       16628.962       103.39906       14.942681       1
       16651.896       107.59407       15.262171       1
       16674.831       110.47577       15.883682       1
       16697.765       114.79753       16.795968       1
       16720.700       84.045352       14.924594       1
       16743.634       140.61067       19.026096       1
       16766.569       150.52350       20.058206       0
       16789.503       127.52525       21.294176       0
       16812.438       181.07546       22.776341       0
       16835.372       184.55547       24.398658       0
       16858.307       149.81123       25.403509       0
       16881.241       183.71291       27.141738       0
       16904.175       180.35723       29.107215       0
       16927.110       213.13419       30.217066       0
       16950.044       230.68494       31.558798       0
       16972.979       137.73092       33.277991       0
       16995.913       232.52682       35.231319       0
       17018.848       209.41544       37.517692       0
       17041.782       259.65808       40.429073       0
       17064.717       293.87040       41.484911       0
       17087.651       278.87889       43.656482       0
       17110.586       224.24743       46.261101       0
       17133.520       271.76103       51.447749       0
       17156.455       566.15053       53.947607       0
       17179.389       768.58950       57.658003       0
       17202.324       595.15857       61.432082       0
       17225.258       541.26606       67.409046       0
       17248.193       787.58862       69.560884       0
       17271.127       890.70892       72.621872       0
       17294.062       1135.9005       77.400836       0
       17316.996       794.13276       79.760540       0
