#WAVELENGTH FLUX ERROR MASK
       7525.4837       14544.436       15340.890       0
       7537.8369       16421.662       10423.731       0
       7550.1900       5791.0090       10278.731       0
       7562.5431       408.50248       6449.1075       0
       7574.8962       1834.1609       6355.1474       0
       7587.2494       2311.6529       4125.8510       0
       7599.6025       2295.4375       4206.2885       0
       7611.9556       4043.1500       2872.6045       0
       7624.3087      -579.65243       2096.0361       0
       7636.6619       1769.4782       2094.5825       0
       7649.0150      -1012.9744       2216.7300       0
       7661.3681       1479.0235       1543.0570       0
       7673.7212      -593.51068       1580.3015       0
       7686.0744      -813.07633       1055.3198       0
       7698.4275       1056.4459       1107.7508       0
       7710.7806       683.73656       763.35570       0
       7723.1337      -316.82281       811.96480       0
       7735.4869       795.78279       592.69405       0
       7747.8400       369.78412       660.96207       0
       7760.1931       28.051391       488.84650       0
       7772.5463       440.27468       563.41056       0
       7784.8994       437.13129       418.36640       0
       7797.2525       215.74527       463.97514       0
       7809.6056       282.96029       391.48852       0
       7821.9588       329.66988       377.84294       0
       7834.3119       344.98973       280.85451       0
       7846.6650       314.38182       302.66422       0
       7859.0181       295.87648       224.16605       0
       7871.3713       168.23269       249.71943       0
       7883.7244       76.580390       190.64309       0
       7896.0775       365.78276       216.46564       0
       7908.4306       109.52052       166.79726       0
       7920.7838       38.105674       158.83790       0
       7933.1369       272.99907       148.15630       0
       7945.4900       245.12250       174.22777       0
       7957.8431       70.120074       146.15145       0
       7970.1963       210.60426       159.38100       0
       7982.5494       274.82677       124.31068       0
       7994.9025       201.06051       147.82544       0
       8007.2556       214.98029       115.86047       0
       8019.6088       297.96493       139.25757       0
       8031.9619       304.76103       110.02499       0
       8044.3150       212.48290       131.76604       0
       8056.6682       93.310476       103.64861       0
       8069.0213       154.68071       127.04605       0
       8081.3744       324.86583       102.20718       0
       8093.7275       193.06567       124.41427       0
       8106.0807       200.89957       98.037382       0
       8118.4338       116.38423       117.75869       0
       8130.7869       228.49915       94.279638       0
       8143.1400       258.55326       114.09685       0
       8155.4932       197.22940       98.268208       1
       8167.8463       223.21022       110.35201       1
       8180.1994       271.33878       88.568784       1
       8192.5525       235.61677       106.44652       1
       8204.9057       151.09790       84.399067       1
       8217.2588       157.43497       101.94630       1
       8229.6119       171.77802       80.965608       1
       8241.9650       298.98352       99.005681       1
       8254.3182       302.31265       77.925611       1
       8266.6713       249.60287       116.88912       1
       8279.0244       233.85540       73.675485       1
       8291.3776       169.64374       88.782244       1
       8303.7307       190.22561       70.083869       1
       8316.0838       272.93309       107.44790       1
       8328.4369       201.35235       67.319819       1
       8340.7901       63.337216       81.391617       1
       8353.1432       256.15281       65.909696       1
       8365.4963       264.79497       80.479089       1
       8377.8494       239.44104       64.075566       1
       8390.2026       254.05703       78.741418       1
       8402.5557       150.98808       61.851390       1
       8414.9088       63.528164       74.886504       1
       8427.2619       198.10466       85.548469       1
       8439.6151       229.97327       74.214148       1
       8451.9682       205.21344       82.940136       1
       8464.3213       219.20645       71.716718       1
       8476.6744       247.48465       56.697125       1
       8489.0276       282.05210       70.549541       1
       8501.3807       217.24520       55.385627       1
       8513.7338       241.16664       68.238557       1
       8526.0869       257.02991       54.811173       1
       8538.4401       224.36468       66.815332       1
       8550.7932       232.08609       53.823500       1
       8563.1463       230.11338       66.300879       1
       8575.4995       193.31516       52.975681       1
       8587.8526       190.38359       65.244687       1
       8600.2057       232.33668       52.739437       1
       8612.5588       194.32340       65.023468       1
       8624.9120       204.83011       52.187027       1
       8637.2651       223.24050       64.538364       1
       8649.6182       199.75016       51.768553       1
       8661.9713       238.61552       64.584216       1
       8674.3245       228.20038       51.042603       1
       8686.6776       245.85922       62.592613       1
       8699.0307       202.08382       49.148871       1
       8711.3838       220.31348       60.262776       1
       8723.7370       229.30675       47.497443       1
       8736.0901       222.85221       58.211846       1
       8748.4432       201.95174       45.823249       1
       8760.7963       162.21016       56.081089       1
       8773.1495       200.48844       44.922335       1
       8785.5026       71.319249       44.862223       1
       8797.8557       249.18013       44.323509       1
       8810.2089       204.44107       54.279690       1
       8822.5620       198.44759       43.054967       1
       8834.9151       226.97623       53.654191       1
       8847.2682       170.78690       41.895198       1
       8859.6214       184.40647       51.934602       1
       8871.9745       238.93963       41.568980       1
       8884.3276       198.34336       50.883920       1
       8896.6807       222.92730       40.919236       1
       8909.0339       245.82988       50.968924       1
       8921.3870       206.48660       50.513009       1
       8933.7401       228.60231       49.876710       1
       8946.0932       251.00400       39.744540       1
       8958.4464       178.06572       48.522264       1
       8970.7995       227.27117       38.901616       1
       8983.1526       190.64021       47.613810       1
       8995.5057       205.41189       37.959359       1
       9007.8589       217.24410       47.309968       1
       9020.2120       202.62056       37.619976       1
       9032.5651       207.67499       46.907032       1
       9044.9182       186.41485       37.326131       1
       9057.2714       219.76544       46.577702       1
       9069.6245       219.71304       40.667583       1
       9081.9776       161.59102       45.498986       1
       9094.3308       235.88960       36.634951       1
       9106.6839       196.23497       44.329551       1
       9119.0370       238.57794       35.741438       1
       9131.3901       173.45181       43.502654       1
       9143.7433       171.90404       34.800021       1
       9156.0964       214.17420       42.799377       1
       9168.4495       185.27371       34.204429       1
       9180.8026       196.67701       41.732226       1
       9193.1558       194.55960       33.663882       1
       9205.5089       208.07646       41.466672       1
       9217.8620       194.37686       33.233768       1
       9230.2151       176.61742       40.440966       1
       9242.5683       192.74668       32.625624       1
       9254.9214       188.46729       40.123830       1
       9267.2745       167.85087       32.130169       1
       9279.6276       225.35681       39.923342       1
       9291.9808       160.23905       31.587757       1
       9304.3339       204.66042       39.251086       1
       9316.6870       169.83152       31.256370       1
       9329.0402       197.49704       38.992277       1
       9341.3933       181.76203       31.109794       1
       9353.7464       163.77092       38.474116       1
       9366.0995       184.75737       30.931549       1
       9378.4527       201.64967       38.409140       1
       9390.8058       229.59799       30.723962       1
       9403.1589       188.12567       37.710185       1
       9415.5120       200.91940       30.401425       1
       9427.8652       171.60272       37.132906       1
       9440.2183       200.29751       29.902848       1
       9452.5714       210.14200       37.061851       1
       9464.9245       217.68704       29.661417       1
       9477.2777       149.19253       35.873321       1
       9489.6308       191.77555       33.064882       1
       9501.9839       171.66485       35.960121       1
       9514.3370       155.94081       28.812819       1
       9526.6902       168.66803       35.423988       1
       9539.0433       154.49196       28.414600       1
       9551.3964       191.40559       34.890470       1
       9563.7495       156.01953       28.228277       1
       9576.1027       162.33016       34.766076       1
       9588.4558       196.39216       28.020952       1
       9600.8089       180.04188       34.386761       1
       9613.1621       173.68652       30.341871       1
       9625.5152       182.69177       34.006194       1
       9637.8683       190.87181       30.144627       1
       9650.2214       178.14263       33.827064       1
       9662.5746       162.60737       27.301223       1
       9674.9277       167.86416       33.414252       1
       9687.2808       191.91824       35.088174       1
       9699.6339       180.15703       33.305557       1
       9711.9871       193.82832       26.888630       1
       9724.3402       144.13340       32.773155       1
       9736.6933       166.25815       26.445452       1
       9749.0464       166.28029       32.489664       1
       9761.3996       174.02205       26.220099       1
       9773.7527       175.92132       32.450068       1
       9786.1058       160.39213       28.048662       1
       9798.4589       145.82070       31.707350       1
       9810.8121       186.22787       26.111424       1
       9823.1652       185.17699       32.165095       1
       9835.5183       156.98501       25.699753       1
       9847.8715       171.14787       31.790549       1
       9860.2246       159.70354       25.606924       1
       9872.5777       175.91097       31.792812       1
       9884.9308       154.53991       25.453864       1
       9897.2840       166.70406       31.565531       1
       9909.6371       157.23017       25.455006       1
       9921.9902       138.29037       31.037131       1
       9934.3433       154.76885       25.148304       1
       9946.6965       152.48000       30.912295       1
       9959.0496       128.09540       26.969663       1
       9971.4027       176.18650       30.994108       1
       9983.7558       138.88761       24.561213       1
       9996.1090       174.13814       30.651941       1
       10008.462       127.17931       24.110559       1
       10020.815       162.26622       30.137002       1
       10033.168       126.08444       23.923109       1
       10045.521       142.67498       29.849416       1
       10057.875       127.84218       23.961841       1
       10070.228       178.03750       30.288323       1
       10082.581       158.91206       24.121494       1
       10094.934       173.04394       30.043792       1
       10107.287       154.40657       24.051517       1
       10119.640       136.78037       29.521016       1
       10131.993       135.64037       23.750939       1
       10144.346       148.50618       29.438860       1
       10156.700       126.22200       23.492443       1
       10169.053       138.21170       29.143367       1
       10181.406       133.92508       26.586708       1
       10193.759       116.39255       28.721203       1
       10206.112       165.12751       23.538776       1
       10218.465       156.24944       28.822665       1
       10230.818       161.32596       23.154026       1
       10243.171       140.63753       28.476907       1
       10255.525       128.87844       22.756751       1
       10267.878       151.84155       28.178860       1
       10280.231       144.54841       22.581956       1
       10292.584       124.90740       27.646479       1
       10304.937       134.32595       22.279344       1
       10317.290       110.64451       27.129166       1
       10329.643       149.35690       22.271946       1
       10341.996       144.73128       27.416000       1
       10354.350       137.42067       22.103256       1
       10366.703       103.70082       33.230486       1
       10379.056       133.37409       22.057100       1
       10391.409       124.23016       27.156596       1
       10403.762       137.93467       22.049437       1
       10416.115       148.74868       27.496811       1
       10428.468       125.66601       23.832345       1
       10440.822       184.09244       27.638309       1
       10453.175       155.51765       21.876618       1
       10465.528       146.99020       27.165333       1
       10477.881       155.51161       21.793042       1
       10490.234       161.66494       27.304792       1
       10502.587       146.19380       21.751077       1
       10514.940       172.74759       27.383799       1
       10527.293       166.57454       21.933825       1
       10539.647       159.60325       27.319856       1
       10552.000       147.28108       21.813776       1
       10564.353       166.39964       27.264421       1
       10576.706       149.76796       21.816348       1
       10589.059       120.92209       26.734959       1
       10601.412       155.74161       21.655970       1
       10613.765       159.81931       26.892721       1
       10626.118       167.48756       21.649125       1
       10638.472       155.11380       26.688880       1
       10650.825       163.85561       21.371964       1
       10663.178       146.56112       26.427699       1
       10675.531       180.48400       21.414828       1
       10687.884       131.83988       26.162270       1
       10700.237       142.41502       21.118759       1
       10712.590       142.58545       26.177405       1
       10724.943       122.63539       22.819780       1
       10737.297       131.71757       25.934823       1
       10749.650       129.65476       20.804963       1
       10762.003       114.47928       25.709775       1
       10774.356       134.69735       20.787164       1
       10786.709       116.92691       25.770256       1
       10799.062       114.91350       20.586331       1
       10811.415       112.36430       25.541986       1
       10823.768       126.41368       20.658622       1
       10836.122       91.355838       25.023491       1
       10848.475       115.01751       20.348967       1
       10860.828       87.961243       24.908229       1
       10873.181       84.568212       19.895821       1
       10885.534       153.38154       25.438366       1
       10897.887       123.68052       20.116314       1
       10910.240       133.12921       25.223596       1
       10922.593       108.56284       21.726931       1
       10934.947       144.63391       25.266041       1
       10947.300       110.00557       20.129358       1
       10959.653       133.03776       24.999674       1
       10972.006       100.45546       20.056582       1
       10984.359       125.79395       25.043802       1
       10996.712       101.39171       20.028583       1
       11009.065       103.81697       24.944353       1
       11021.418       107.53529       20.005571       1
       11033.772       135.66997       25.169616       1
       11046.125       114.74161       20.076270       1
       11058.478       127.43607       25.069224       1
       11070.831       105.83983       19.943959       1
       11083.184       109.35891       24.771491       1
       11095.537       108.25038       20.020340       1
       11107.890       86.605549       24.676123       1
       11120.243       123.83024       20.161809       1
       11132.597       100.14074       24.859165       1
       11144.950       100.55593       20.043713       1
       11157.303       92.507705       24.495148       1
       11169.656       105.52656       20.039025       1
       11182.009       105.84576       24.375061       1
       11194.362       97.390404       20.021779       1
       11206.715       146.87848       24.969080       0
       11219.068       124.31959       20.188688       0
       11231.422       107.02014       24.708458       0
       11243.775       103.95989       19.999472       0
       11256.128       135.13326       24.996301       0
       11268.481       107.85803       20.040542       0
       11280.834       99.207911       24.383723       0
       11293.187       109.43605       20.024463       0
       11305.540       102.33870       24.749977       0
       11317.893       113.61085       20.264234       0
       11330.247       99.308311       25.239260       0
       11342.600       109.32855       21.129525       0
       11354.953       111.31786       27.313489       0
       11367.306       88.932923       23.079693       0
       11379.659       115.59221       31.079792       0
       11392.012       62.278358       26.897742       0
       11404.365       78.973885       37.014109       0
       11416.718       103.45116       33.706800       0
       11429.072       98.910310       47.274965       0
       11441.425       102.25733       43.438908       0
       11453.778       125.38112       61.395302       0
       11466.131       79.619259       55.528757       0
       11478.484       131.92293       77.465984       0
       11490.837       103.98857       70.863504       0
       11503.190       122.16561       95.023548       0
       11515.543       156.53340       87.884369       0
       11527.897      -18.676996       117.85063       0
       11540.250       77.740515       112.13941       0
       11552.603       172.90966       164.13939       0
       11564.956       84.012821       161.48896       0
       11577.309       259.98204       247.30118       0
       11589.662      -39.084299       271.00212       0
       11602.015       81.203503       380.55808       0
       11614.368       49.611969       381.77441       0
       11626.722      -175.92377       572.85603       0
       11639.075       200.54761       566.41732       0
       11651.428       245.25199       848.27275       0
       11663.781       89.620524       867.37343       0
       11676.134       787.33461       1412.2857       0
       11688.487      -1462.8194       1466.0046       0
       11700.840      -690.69262       2393.0208       0
       11713.194      -1203.6185       2560.7183       0
       11725.547       1455.5032       4098.5301       0
       11737.900      -1648.6247       3715.6479       0
       11750.253      -932.35673       4858.5609       0
       11762.606       1142.6987       3901.3789       0
       11774.959       5083.9842       4805.8276       0
       11787.312      -2359.4635       3674.5235       0
       11799.665      -13417.002       3191.2600       0
       11812.019       5391.3489       4000.7777       0
       11824.372      -4302.8444       5378.7322       0
       11836.725       267.71808       5100.0475       0
       11849.078       5822.4047       7526.9755       0
       11861.431       4226.2240       7261.0762       0
       11873.784      -7115.2246       10478.035       0
       11886.137       6065.4294       11194.886       0
       11898.490      -4379.4645       13605.134       0
       11910.844      -7023.3526       12759.204       0
       11923.197      -11779.879       19035.690       0
       11935.550       18341.718       19488.428       0
       11947.903       26861.974       29117.246       0
       11960.256       2752.3854       28025.817       0
