#WAVELENGTH FLUX ERROR MASK
       10161.171       24740.369   1.0710224e+09       0
       10183.656       24866.521       3134.6369       0
       10206.140       20821.600       2905.4933       0
       10228.625       17466.719       2453.7980       0
       10251.109       15452.407       2199.7027       0
       10273.593       12521.856       1827.1199       0
       10296.078       11866.455       1630.0141       0
       10318.562       9485.5551       1441.5386       0
       10341.046       8661.0609       1321.4112       0
       10363.531       7511.3692       1180.6271       0
       10386.015       5137.5979       998.81794       0
       10408.499       6279.6049       988.18407       0
       10430.984       5506.7234       903.09118       0
       10453.468       4711.6594       766.99250       0
       10475.952       3998.2005       670.16474       0
       10498.437       3961.1864       558.73570       0
       10520.921       2771.7679       477.09686       0
       10543.406       2551.8874       406.26705       0
       10565.890       2424.6738       363.83505       0
       10588.374       2372.9037       318.83101       0
       10610.859       1905.8347       289.84183       0
       10633.343       1839.9421       257.02379       0
       10655.827       1511.7982       234.94203       0
       10678.312       1367.3542       203.35857       0
       10700.796       1196.1592       179.59828       0
       10723.280       1088.1240       150.42576       0
       10745.765       856.06285       127.51018       0
       10768.249       791.52162       105.35764       0
       10790.734       677.90066       89.927345       0
       10813.218       609.52708       76.132962       0
       10835.702       550.07131       67.426527       0
       10858.187       513.54123       59.789677       0
       10880.671       379.99966       53.901915       0
       10903.155       464.79335       49.768161       0
       10925.640       428.36134       16019711.       0
       10948.124       411.00175       43.208420       0
       10970.608       380.83629       41.282727       0
       10993.093       250.14603       33.410627       0
       11015.577       333.03277       36.245734       1
       11038.062       332.78713       33.164094       1
       11060.546       295.44507       31.888250       1
       11083.030       312.14557       29.692389       1
       11105.515       303.25590       29.271919       1
       11127.999       306.58386       27.328884       1
       11150.483       287.10984       27.447014       1
       11172.968       272.08598       26.017619       1
       11195.452       298.64979       26.427672       1
       11217.936       264.08101       25.287577       1
       11240.421       262.27149       25.547180       1
       11262.905       301.64246       25.081132       1
       11285.390       264.94182       25.285196       1
       11307.874       280.69966       24.403565       1
       11330.358       263.82004       24.861381       1
       11352.843       262.45311       23.785477       1
       11375.327       273.96605       24.335512       1
       11397.811       237.31566       23.517211       1
       11420.296       242.98390       23.592312       1
       11442.780       240.43388       23.290688       1
       11465.264       260.25323       23.553240       1
       11487.749       253.25290       24.191310       1
       11510.233       242.73310       23.350001       1
       11532.718       265.15237       22.892314       1
       11555.202       245.30985       23.183788       1
       11577.686       242.62596       22.566770       1
       11600.171       262.16468       23.011819       1
       11622.655       251.99488       22.328264       1
       11645.139       266.95405       22.784824       1
       11667.624       250.34444       21.980992       1
       11690.108       245.28634       22.153117       1
       11712.592       242.65852       21.304480       1
       11735.077       237.86065       21.697785       1
       11757.561       241.27104       20.879069       1
       11780.046       213.49230       21.055119       1
       11802.530       245.38250       20.393687       1
       11825.014       224.44526       20.753836       1
       11847.499       232.68322       20.037639       1
       11869.983       218.41762       20.325642       1
       11892.467       207.91287       20.249504       1
       11914.952       209.15179       19.941808       1
       11937.436       198.23796       19.968730       1
       11959.920       200.85572       19.656157       1
       11982.405       227.07575       19.468011       1
       12004.889       215.75114       19.593423       1
       12027.374       209.59983       18.774468       1
       12049.858       222.58638       19.500904       1
       12072.342       198.04648       18.748218       1
       12094.827       200.36159       19.013232       1
       12117.311       201.07134       18.663156       1
       12139.795       193.10398       18.821595       1
       12162.280       204.56740       18.489556       1
       12184.764       187.17182       18.576581       1
       12207.248       192.93547       18.046222       1
       12229.733       175.99689       18.260325       1
       12252.217       180.00122       17.727783       1
       12274.702       180.07152       18.081923       1
       12297.186       176.91545       17.553781       1
       12319.670       167.67437       17.686427       1
       12342.155       176.94109       17.359976       1
       12364.639       175.09103       17.700607       1
       12387.123       167.64169       17.107562       1
       12409.608       158.43467       17.345292       1
       12432.092       166.02849       16.972357       1
       12454.576       166.68870       17.269014       1
       12477.061       151.31658       16.673594       1
       12499.545       169.19686       17.269022       1
       12522.030       157.07521       16.763148       1
       12544.514       157.49002       16.841161       1
       12566.998       157.40436       16.293649       1
       12589.483       149.27272       16.806153       1
       12611.967       139.56715       16.046069       1
       12634.451       169.89688       16.773716       1
       12656.936       154.83696       16.050093       1
       12679.420       152.66915       16.515667       1
       12701.904       155.85871       15.947331       1
       12724.389       154.53556       16.470764       1
       12746.873       140.31679       15.588741       1
       12769.358       150.41402       16.273948       1
       12791.842       148.23723       15.430989       1
       12814.326       150.93320       15.875864       1
       12836.811       143.04421       15.207625       1
       12859.295       143.22034       15.705447       1
       12881.779       144.60193       15.212086       1
       12904.264       143.38110       15.631671       1
       12926.748       169.53267       15.396993       1
       12949.232       147.54743       15.420483       1
       12971.717       134.74854       14.817063       1
       12994.201       144.21358       15.337241       1
       13016.686       138.63283       14.695097       1
       13039.170       128.37673       14.938010       1
       13061.654       145.61622       14.660684       1
       13084.139       145.49658       14.969476       1
       13106.623       127.05082       14.558082       1
       13129.107       131.43336       14.843673       1
       13151.592       119.23074       14.379182       1
       13174.076       141.93693       14.905094       1
       13196.560       131.70712       14.293892       1
       13219.045       133.60936       14.629633       1
       13241.529       130.90196       14.163931       1
       13264.013       131.63220       14.517838       1
       13286.498       140.07301       14.141358       1
       13308.982       133.25867       14.379762       1
       13331.467       118.82965       13.911448       1
       13353.951       140.26977       14.482864       1
       13376.435       133.98317       13.944783       1
       13398.920       123.40420       14.151866       1
       13421.404       135.12165       13.817836       1
       13443.888       138.73270       14.259484       1
       13466.373       131.25104       13.668513       1
       13488.857       137.21068       14.080357       1
       13511.341       125.66991       13.380825       1
       13533.826       135.89126       13.961475       1
       13556.310       131.95008       13.357383       1
       13578.795       131.89362       13.884429       1
       13601.279       134.75230       13.548734       1
       13623.763       135.64437       13.882521       1
       13646.248       140.47496       13.601218       1
       13668.732       163.31503       14.184022       1
       13691.216       144.27253       13.701161       1
       13713.701       158.15031       14.177033       1
       13736.185       106.92206       11.596677       1
       13758.669       137.74036       13.980610       1
       13781.154       128.43171       13.479580       1
       13803.638       136.53955       13.987417       1
       13826.123       120.52095       13.471745       1
       13848.607       139.88007       13.989998       1
       13871.091       126.61887       4669800.1       1
       13893.576       119.69327       13.944754       1
       13916.060       131.00214       13.466544       1
       13938.544       130.84927       13.752403       1
       13961.029       131.78613       13.411923       1
       13983.513       134.87427       13.701485       1
       14005.997       88.732161       11.156670       1
       14028.482       130.47738       13.566454       1
       14050.966       146.33294       13.349609       1
       14073.451       132.66110       13.496931       1
       14095.935       143.99297       13.185928       1
       14118.419       129.94676       13.296706       1
       14140.904       122.90960       12.902199       1
       14163.388       134.59036       13.364382       1
       14185.872       90.652512       11.283559       1
       14208.357       125.83456       13.278210       1
       14230.841       90.688178       11.003212       1
       14253.325       122.52512       13.011596       1
       14275.810       126.46491       12.601416       1
       14298.294       126.66131       12.966696       1
       14320.779       122.33943       12.427144       1
       14343.263       122.08829       12.867293       1
       14365.747       130.70010       12.466530       1
       14388.232       125.50725       12.826939       1
       14410.716       131.02772       12.418028       1
       14433.200       132.99760       12.943579       1
       14455.685       126.95101       12.365259       1
       14478.169       119.39479       12.897771       1
       14500.653       122.56810       12.341990       1
       14523.138       121.53285       12.957166       1
       14545.622       132.10779       12.475837       1
       14568.107       128.89905       12.790108       1
       14590.591       120.76992       12.343907       1
       14613.075       126.91556       12.838178       1
       14635.560       120.14969       12.361379       1
       14658.044       127.73492       12.873632       1
       14680.528       122.68930       12.399935       1
       14703.013       128.40682       12.894986       1
       14725.497       119.67030       12.335751       1
       14747.981       120.20689       12.811862       1
       14770.466       118.98208       12.365483       1
       14792.950       116.45549       12.920900       1
       14815.435       123.96216       3866109.7       1
       14837.919       122.37366       12.936476       1
       14860.403       122.88426       12.599108       1
       14882.888       116.98225       12.777343       1
       14905.372       117.33586       12.476820       1
       14927.856       117.97475       12.657912       1
       14950.341       128.26571       12.501827       1
       14972.825       123.68808       12.673911       1
       14995.309       125.52606       12.416254       1
       15017.794       124.84290       12.700140       1
       15040.278       121.58349       12.383705       1
       15062.763       122.59316       12.776300       1
       15085.247       124.28070       12.378801       1
       15107.731       119.24238       12.792825       1
       15130.216       128.05285       12.400706       1
       15152.700       122.38710       12.596108       1
       15175.184       124.16791       12.329927       1
       15197.669       115.93119       12.536571       1
       15220.153       124.00839       12.302157       1
       15242.637       122.08333       12.498895       1
       15265.122       122.51438       3720444.5       1
       15287.606       111.76772       12.412627       1
       15310.091       130.63462       12.318308       1
       15332.575       114.37736       12.445164       1
       15355.059       122.17796       12.091980       1
       15377.544       117.42699       12.411386       1
       15400.028       121.38997       12.140983       1
       15422.512       122.34368       12.515235       1
       15444.997       114.47005       12.122952       1
       15467.481       114.64324       12.470482       1
       15489.965       109.12215       12.087477       1
       15512.450       112.27307       12.419133       1
       15534.934       120.08558       12.155514       1
       15557.419       125.71904       12.525528       1
       15579.903       108.76813       12.091765       1
       15602.387       125.91625       12.523404       1
       15624.872       119.72810       12.169758       1
       15647.356       111.44309       12.424333       1
       15669.840       110.21824       11.992104       1
       15692.325       89.254239       10.657500       1
       15714.809       118.42790       12.019402       1
       15737.293       115.75063       12.320766       1
       15759.778       118.87612       11.956442       1
       15782.262       118.90993       12.288558       1
       15804.747       115.95482       12.006257       1
       15827.231       121.14767       12.309977       1
       15849.715       134.60430       12.182754       1
       15872.200       115.85902       12.312236       1
       15894.684       110.73631       12.010767       1
       15917.168       109.82541       13.253609       1
       15939.653       111.02523       12.034406       1
       15962.137       110.24176       13.328231       1
       15984.621       102.61847       12.538674       1
       16007.106       91.749928       10.674802       1
       16029.590       99.022498       12.483422       1
       16052.074       108.75567       12.347232       1
       16074.559       82.417945       10.197733       1
       16097.043       104.39619       12.275972       1
       16119.528       99.219631       11.973327       1
       16142.012       102.61377       12.365585       1
       16164.496       100.13503       12.005051       1
       16186.981       108.35237       12.449155       1
       16209.465       102.59917       12.165150       1
       16231.949       104.09693       12.547677       1
       16254.434       100.50865       12.221901       1
       16276.918       105.67758       12.631139       1
       16299.402       123.44442       12.472081       1
       16321.887       105.54507       12.666040       1
       16344.371       100.02122       12.313099       1
       16366.856       101.28364       12.930655       1
       16389.340       110.50497       12.469407       1
       16411.824       101.52050       12.724831       1
       16434.309       102.62290       12.426804       1
       16456.793       79.470323       11.468268       1
       16479.277       98.885492       12.747825       1
       16501.762       110.88620       13.366365       1
       16524.246       86.522056       12.169429       1
       16546.730       100.20602       13.888173       1
       16569.215       105.40830       14.275371       1
       16591.699       107.19978       15.291489       1
       16614.184       113.14736       15.952780       1
       16636.668       107.35434       17.370500       1
       16659.152       109.37868       18.251535       1
       16681.637       96.923512       18.384309       1
       16704.121       114.45910       21.982686       1
       16726.605       113.07426       25.551635       1
       16749.090       111.49301       28.174479       1
       16771.574       110.19637       32.576379       0
       16794.058       138.99306       36.429939       0
       16816.543       122.37806       41.883493       0
       16839.027       129.22377       46.217013       0
       16861.512       171.62209       53.236628       0
       16883.996       151.35949       57.811645       0
       16906.480       108.59281       21008586.       0
       16928.965       149.22318       71.406431       0
       16951.449       136.84603       72.932168       0
       16973.933       149.05024       88.421413       0
       16996.418       120.86112       98.525084       0
       17018.902       95.751113       105.93428       0
       17041.386       68.291773       120.17693       0
       17063.871       102.55137       128.83977       0
       17086.355       31.084197       147.98801       0
       17108.840      0.53734400       158.31067       0
       17131.324       111.50444       190.37565       0
       17153.808       172.10214       209.17618       0
