#WAVELENGTH FLUX ERROR MASK
       10208.958      -2796.2623       174.08995       0
       10232.363      -1261.1865       163.40399       0
       10255.767      -584.22413       150.98169       0
       10279.172      -7.7314687       141.16162       0
       10302.577       285.09240       130.49768       0
       10325.982       199.44556       123.68888       0
       10349.386       63.884451       116.71507       0
       10372.791      -675.45481       111.03129       0
       10396.196       927.78810       107.12772       0
       10419.600       1140.8881       70.837205       0
       10443.005       1315.0773       96.655693       0
       10466.410      -118.75692       87.894936       0
       10489.814       475.24274       81.008752       0
       10513.219       263.09375       74.689634       0
       10536.624       592.31570       68.681928       0
       10560.028       34.703805       63.901698       0
       10583.433       101.90132       59.331433       0
       10606.838       52.022082       56.172723       0
       10630.243       542.90990       54.193549       0
       10653.647       131.17298       51.116597       0
       10677.052       171.04017       47.600426       0
       10700.457       194.94357       44.468320       0
       10723.861       45.453653       40.204529       0
       10747.266       85.445183       37.132396       0
       10770.671       222.51245       34.081562       0
       10794.075       96.547657       30.933028       0
       10817.480       115.27509       28.841522       0
       10840.885       149.56818       27.163443       0
       10864.290       27.086759       24.957578       0
       10887.694       127.45908       24.536254       0
       10911.099       150.13125       23.655000       0
       10934.504       117.60015       22.861143       0
       10957.908       99.197782       21.682652       0
       10981.313       143.59713       21.516086       0
       11004.718       112.27990       20.417327       1
       11028.122       96.630671       19.772919       1
       11051.527       133.06385       19.189947       1
       11074.932       105.48711       18.673556       1
       11098.336       130.22576       18.288437       1
       11121.741       136.00319       18.196692       1
       11145.146       93.353542       18.279736       1
       11168.551       150.17408       17.776001       1
       11191.955       139.76059       17.478715       1
       11215.360       131.58641       17.449137       1
       11238.765       119.35346       17.192789       1
       11262.169       130.60734       17.301429       1
       11285.574       106.66239       17.648035       1
       11308.979       112.53718       17.044382       1
       11332.383       70.791496       10.839555       1
       11355.788       130.86910       16.966510       1
       11379.193       96.447235       16.522872       1
       11402.598       116.03794       16.647439       1
       11426.002       103.11175       16.428598       1
       11449.407       125.24496       16.647292       1
       11472.812       120.59682       16.501829       1
       11496.216       78.461125       12.326041       1
       11519.621       129.00545       16.482643       1
       11543.026       112.60251       16.486665       1
       11566.430       116.37191       18.816539       1
       11589.835       120.37801       16.462597       1
       11613.240       114.77397       16.260829       1
       11636.644       110.27264       16.240362       1
       11660.049       130.10466       16.201738       1
       11683.454       154.77903       16.480965       1
       11706.859       124.79242       15.885165       1
       11730.263       128.93604       15.971817       1
       11753.668       64.630612       12.074404       1
       11777.073       129.50104       15.897720       1
       11800.477       128.54286       15.630606       1
       11823.882       114.46930       15.725250       1
       11847.287       104.32233       15.358443       1
       11870.691       114.26091       15.505610       1
       11894.096       133.33613       15.436631       1
       11917.501       133.10558       15.491639       1
       11940.905       115.37860       15.242532       1
       11964.310       121.55357       15.400024       1
       11987.715       122.07555       15.133804       1
       12011.120       133.12197       15.405105       1
       12034.524       128.45087       16.495330       1
       12057.929       128.80502       15.233064       1
       12081.334       126.71575       15.053718       1
       12104.738       128.41962       15.170524       1
       12128.143       135.72608       15.046549       1
       12151.548       133.46570       15.177798       1
       12174.952       149.91314       15.110050       1
       12198.357       119.46961       14.922462       1
       12221.762       157.21974       15.141148       1
       12245.167       123.04043       14.892778       1
       12268.571       129.36037       16.286076       1
       12291.976       146.06290       14.903036       1
       12315.381       145.56979       14.771535       1
       12338.785       137.12419       14.844655       1
       12362.190       139.92496       14.726905       1
       12385.595       75.412601       10.040825       1
       12408.999       142.16870       14.639482       1
       12432.404       128.69816       14.652167       1
       12455.809       134.17631       14.552458       1
       12479.213       125.62142       14.572793       1
       12502.618       134.59232       14.426285       1
       12526.023       129.18083       14.578572       1
       12549.428       127.78582       14.059677       1
       12572.832       121.51283       14.439793       1
       12596.237       137.19982       14.472008       1
       12619.642       145.37631       14.602899       1
       12643.046       141.11686       14.448864       1
       12666.451       151.24573       16.820383       1
       12689.856       128.36628       14.205535       1
       12713.260       154.58528       14.609697       1
       12736.665       141.33630       14.337913       1
       12760.070       142.64714       14.482768       1
       12783.475       132.92118       14.180151       1
       12806.879       133.24446       14.275515       1
       12830.284       113.69539       13.960667       1
       12853.689       134.75375       14.139290       1
       12877.093       129.48910       14.060769       1
       12900.498       135.61607       14.232337       1
       12923.903       134.19523       14.027223       1
       12947.307       153.15562       14.341592       1
       12970.712       158.32868       14.158088       1
       12994.117       127.07261       14.005114       1
       13017.521       145.67311       13.935784       1
       13040.926       143.10948       14.007410       1
       13064.331       160.77564       13.888630       1
       13087.736       128.63349       13.801010       1
       13111.140       131.84021       13.765740       1
       13134.545       125.52398       13.821093       1
       13157.950       69.319773       10.621240       1
       13181.354       139.79987       13.903043       1
       13204.759       129.05183       13.576128       1
       13228.164       158.93404       13.931653       1
       13251.568       163.40647       13.800214       1
       13274.973       207.38961       14.393736       1
       13298.378       247.20002       14.585790       1
       13321.783       300.45934       15.128282       1
       13345.187       282.07892       14.845999       1
       13368.592       252.20795       14.686502       1
       13391.997       274.50903       15.277434       1
       13415.401       393.42482       16.022806       1
       13438.806       574.40818       17.246158       1
       13462.211       557.65881       17.291255       1
       13485.615       359.82148       15.444620       1
       13509.020       201.80115       14.156260       1
       13532.425       173.35086       13.720967       1
       13555.829       128.91583       13.434731       1
       13579.234       126.03844       13.339505       1
       13602.639       136.10253       13.572772       1
       13626.044       133.72487       13.342026       1
       13649.448       120.25992       13.388199       1
       13672.853       145.43410       13.374686       1
       13696.258       121.10567       13.349507       1
       13719.662       135.52354       13.377747       1
       13743.067       114.57914       13.336218       1
       13766.472       127.94160       13.114854       1
       13789.876       126.28127       13.416308       1
       13813.281       144.00640       13.459464       1
       13836.686       133.02679       13.410533       1
       13860.091       127.94489       13.220228       1
       13883.495       117.94688       13.266383       1
       13906.900       126.60664       13.244784       1
       13930.305       115.58560       13.243350       1
       13953.709       146.79216       13.354324       1
       13977.114       127.45046       13.343500       1
       14000.519       123.92520       13.065867       1
       14023.923       126.45865       13.351837       1
       14047.328       129.91144       13.189740       1
       14070.733       117.02476       13.150202       1
       14094.137       108.29363       14.685479       1
       14117.542       141.01409       13.311379       1
       14140.947       110.54262       14.256466       1
       14164.352       126.20785       13.157912       1
       14187.756       129.43775       13.002889       1
       14211.161       128.06258       13.017279       1
       14234.566       116.65451       12.810008       1
       14257.970       137.77531       13.230683       1
       14281.375       152.03126       13.085667       1
       14304.780       129.97594       13.116996       1
       14328.184       135.53896       13.067677       1
       14351.589       117.28745       12.877860       1
       14374.994       113.10451       12.788570       1
       14398.399       137.71397       12.993473       1
       14421.803       123.21604       12.818751       1
       14445.208       141.18265       13.202404       1
       14468.613       119.86567       12.789131       1
       14492.017       140.16686       13.144145       1
       14515.422       138.86782       13.022520       1
       14538.827       135.97861       13.023785       1
       14562.231       130.93982       12.948532       1
       14585.636       130.38211       13.034417       1
       14609.041       124.08597       12.823200       1
       14632.445       130.68210       13.063028       1
       14655.850       138.26999       12.930271       1
       14679.255       57.466987       8.7694160       1
       14702.660       120.86179       12.761196       1
       14726.064       132.94838       13.073674       1
       14749.469       122.08031       12.739218       1
       14772.874       125.21793       13.030313       1
       14796.278       125.29315       12.970041       1
       14819.683       125.43730       12.999367       1
       14843.088       68.695914       9.9488542       1
       14866.492       127.10171       12.995027       1
       14889.897       111.76134       12.721876       1
       14913.302       130.68314       12.967464       1
       14936.707       133.69227       12.894449       1
       14960.111       129.88350       12.991665       1
       14983.516       129.85116       12.798730       1
       15006.921       144.84109       13.136815       1
       15030.325       139.26956       12.888595       1
       15053.730       135.58769       12.973165       1
       15077.135       130.30826       12.799466       1
       15100.539       124.24848       12.807456       1
       15123.944       131.35904       12.825631       1
       15147.349       130.33535       12.762875       1
       15170.753       126.35493       12.774276       1
       15194.158       123.03391       12.767093       1
       15217.563       126.67712       12.718798       1
       15240.968       128.33715       12.825966       1
       15264.372       135.25971       12.800854       1
       15287.777       141.52889       12.873263       1
       15311.182       135.15011       12.736010       1
       15334.586       139.26000       12.920710       1
       15357.991       139.10672       12.755701       1
       15381.396       135.23800       12.856947       1
       15404.800       146.49924       12.836162       1
       15428.205       125.75580       12.730250       1
       15451.610       129.14428       12.729954       1
       15475.015       129.90565       12.795185       1
       15498.419       131.68025       12.748022       1
       15521.824       129.64148       12.686178       1
       15545.229       131.53608       12.727082       1
       15568.633       132.90931       12.911717       1
       15592.038       145.83791       12.904841       1
       15615.443       153.21061       13.080343       1
       15638.847       129.24161       12.717296       1
       15662.252       141.20841       12.957030       1
       15685.657       151.52612       12.996620       1
       15709.061       146.95349       12.923383       1
       15732.466       126.42360       12.685951       1
       15755.871       66.277842       9.3979885       1
       15779.276       143.61800       12.800382       1
       15802.680       115.05887       12.730260       1
       15826.085       116.30306       12.382432       1
       15849.490       135.47492       12.845369       1
       15872.894       133.02563       12.743998       1
       15896.299       132.76676       12.769504       1
       15919.704       122.31099       12.695621       1
       15943.108       129.56497       12.832357       1
       15966.513       138.37983       12.836407       1
       15989.918       142.36971       13.025560       1
       16013.323       135.81166       12.805194       1
       16036.727       126.42901       12.894465       1
       16060.132       127.72416       13.052026       1
       16083.537       117.97294       5920170.5       1
       16106.941       124.61510       12.693178       1
       16130.346       143.59517       13.055865       1
       16153.751       125.12812       12.811992       1
       16177.155       139.27277       12.995243       1
       16200.560       136.32601       12.746431       1
       16223.965       133.97912       13.042480       1
       16247.369       117.66400       12.670193       1
       16270.774       146.28549       13.224757       1
       16294.179       141.88142       13.004794       1
       16317.584       141.07218       13.196474       1
       16340.988       137.05837       13.061207       1
       16364.393       135.24262       13.184393       1
       16387.798       122.47522       13.543993       1
       16411.202       141.96660       13.282454       1
       16434.607       127.27420       13.008032       1
       16458.012       131.79712       13.183942       1
       16481.416       126.91750       13.052435       1
       16504.821       143.72801       13.414618       1
       16528.226       173.59333       13.618577       1
       16551.631       142.36011       13.655559       1
       16575.035       117.57267       13.514600       1
       16598.440       124.45765       13.977581       1
       16621.845       125.59107       14.152890       1
       16645.249       120.67629       14.732084       1
       16668.654       115.89913       15.227365       1
       16692.059       45.572090       11.800477       1
       16715.463       147.45522       16.908756       1
       16738.868       117.75389       17.740413       1
       16762.273       103.67900       19.304489       0
       16785.677       157.39668       20.204161       0
       16809.082       116.56753       21.162726       0
       16832.487       108.85369       22.570674       0
       16855.892       134.44118       24.025198       0
       16879.296       140.97463       25.592382       0
       16902.701       101.41388       26.677883       0
       16926.106       148.04045       28.394915       0
       16949.510       137.58942       29.923629       0
       16972.915       99.423394       31.580848       0
       16996.320       158.88898       33.577167       0
       17019.724       71.451726       35.334136       0
       17043.129       245.94288       37.549646       0
       17066.534       230.26218       39.732523       0
       17089.939       233.69794       40.737842       0
       17113.343       377.63801       44.683142       0
       17136.748       452.01152       47.361316       0
       17160.153       204.33268       50.059975       0
       17183.557       342.80836       54.129654       0
       17206.962      -247.04528       38.855921       0
       17230.367       267.27607       61.652863       0
       17253.771       286.15350       65.415802       0
       17277.176      -245.36970       78.044799       0
       17300.581       251.95179       73.562617       0
       17323.985       405.41435       84.084056       0
       17347.390       111.06677       80.904866       0
       17370.795      -305.76100       83.774553       0
       17394.200       66.578923       89.096290       0
       17417.604       999.67358       94.871261       0
       17441.009      -83.696715       98.361649       0
       17464.414       695.94418       104.36104       0
       17487.818       389.24124       112.60487       0
