#WAVELENGTH FLUX ERROR MASK
       10268.752      -241.01987       2016.0989       0
       10292.194      -232.55960       1870.6082       0
       10315.636      -854.59831       1518.9862       0
       10339.078       1306.7289       1496.8492       0
       10362.521       1496.1666       1253.8165       0
       10385.963       709.86929       1235.2553       0
       10409.405       758.32538       1033.1034       0
       10432.847      -2342.6081       639.73470       0
       10456.289       1.0628285       786.27009       0
       10479.731       311.29240       729.87972       0
       10503.173      -184.84918       559.22271       0
       10526.615       72.052588       515.06825       0
       10550.057       264.21425       407.69020       0
       10573.500       184.13192       387.87679       0
       10596.942       375.29964       319.00929       0
       10620.384       181.05105       309.14820       0
       10643.826       55.911401       254.75829       0
       10667.268       515.68887       249.11864       0
       10690.710       7.2778349       194.55885       0
       10714.152       233.04161       183.43540       0
       10737.594       271.08363       139.98642       0
       10761.037       177.95138       126.85465       0
       10784.479       56.029415       96.626144       0
       10807.921       132.79894       89.532177       0
       10831.363       126.46250       70.931674       0
       10854.805       141.82088       68.574474       0
       10878.247       150.13399       57.327305       0
       10901.689       156.69012       57.290130       0
       10925.131       32.755068       47.760554       0
       10948.573       213.30843       50.427266       0
       10972.016       115.16918       42.478046       0
       10995.458       187.49226       44.026195       0
       11018.900       92.794707       17634036.       1
       11042.342       119.86354       37.616681       1
       11065.784       80.462322       32.340369       1
       11089.226       114.61667       33.504064       1
       11112.668       96.433940       29.569078       1
       11136.110       137.73794       31.027827       1
       11159.553       111.93552       28.078411       1
       11182.995       123.24731       29.408243       1
       11206.437       101.67119       26.991944       1
       11229.879       138.76372       29.157738       1
       11253.321       115.71221       26.508890       1
       11276.763       131.01674       28.540164       1
       11300.205       117.84509       26.027924       1
       11323.647       117.33342       27.841853       1
       11347.089       101.24359       25.335787       1
       11370.532       97.916539       27.106252       1
       11393.974       98.746163       24.810296       1
       11417.416       109.72914       26.748332       1
       11440.858       109.94307       24.449821       1
       11464.300       124.75367       26.537253       1
       11487.742       113.00643       24.339217       1
       11511.184       110.64522       26.079261       1
       11534.626       111.93536       24.169425       1
       11558.069       107.85835       25.918240       1
       11581.511       92.270376       23.660564       1
       11604.953       133.91124       25.941313       1
       11628.395       99.850663       23.490483       1
       11651.837       107.04878       24.928024       1
       11675.279       104.57915       22.968217       1
       11698.721       106.74062       24.506212       1
       11722.163       97.108774       22.283312       1
       11745.606       86.514254       20.576735       1
       11769.048       131.24429       22.240321       1
       11792.490       129.21886       23.711328       1
       11815.932       113.99494       21.572944       1
       11839.374       101.82821       22.900934       1
       11862.816       100.74239       20.889063       1
       11886.258       103.59490       22.620563       1
       11909.700       122.79311       6857980.8       1
       11933.142       125.79918       22.627533       1
       11956.585       132.36976       20.870475       1
       11980.027       111.81732       22.115113       1
       12003.469       130.25536       20.463134       1
       12026.911       117.10537       21.812997       1
       12050.353       127.29336       20.121333       1
       12073.795       125.40627       21.763663       1
       12097.237       128.26550       19.923081       1
       12120.679       115.55046       21.286958       1
       12144.122       106.38336       19.543747       1
       12167.564       121.10973       21.155665       1
       12191.006       84.156399       16.730541       1
       12214.448       116.44984       20.846865       1
       12237.890       127.29398       19.230667       1
       12261.332       102.29646       20.387251       1
       12284.774       125.81747       19.099513       1
       12308.216       128.84416       20.465366       1
       12331.658       123.71223       18.650353       1
       12355.101       111.60250       20.191813       1
       12378.543       141.23798       18.794532       1
       12401.985       121.79802       20.088155       1
       12425.427       117.88047       18.356481       1
       12448.869       124.07135       19.849175       1
       12472.311       111.12008       18.175828       1
       12495.753       128.04247       19.691601       1
       12519.195       119.34812       18.220740       1
       12542.638       106.10614       19.400226       1
       12566.080       125.18443       18.058980       1
       12589.522       130.85629       19.653556       1
       12612.964       135.04664       18.053205       1
       12636.406       139.26048       19.684203       1
       12659.848       104.13071       17.843038       1
       12683.290       34.093048       14.518019       1
       12706.732       133.76878       17.818706       1
       12730.174       121.26782       19.072178       1
       12753.617       115.16770       17.253355       1
       12777.059       133.90228       18.985780       1
       12800.501       41.008681       11.836795       1
       12823.943       131.79212       18.777178       1
       12847.385       121.87202       16.976739       1
       12870.827       136.95383       18.757974       1
       12894.269       120.97980       17.026110       1
       12917.711       135.44593       18.512865       1
       12941.154       131.09363       16.911476       1
       12964.596       109.79113       18.073399       1
       12988.038       115.48417       16.680945       1
       13011.480       144.16926       18.221333       1
       13034.922       128.88587       16.687696       1
       13058.364       134.20149       17.967144       1
       13081.806       116.79614       18.158068       1
       13105.248       133.18653       17.843096       1
       13128.690       140.54088       16.406752       1
       13152.133       129.63868       17.570793       1
       13175.575       146.22502       16.296958       1
       13199.017       141.32729       17.428296       1
       13222.459       135.74401       16.016304       1
       13245.901       125.96064       16.927413       1
       13269.343       141.71391       15.903561       1
       13292.785       160.11720       17.367604       1
       13316.227       168.01758       16.184294       1
       13339.670       220.65802       18.049286       1
       13363.112       234.96228       16.749763       1
       13386.554       218.98958       17.914383       1
       13409.996       206.56666       16.341510       1
       13433.438       248.56605       17.961669       1
       13456.880       297.82718       16.985749       1
       13480.322       379.52526       19.014699       1
       13503.764       321.37709       17.089457       1
       13527.206       255.62442       17.687552       1
       13550.649       164.47752       15.470560       1
       13574.091       160.48019       17.479400       1
       13597.533       139.58342       15.212655       1
       13620.975       122.07301       16.982362       1
       13644.417       129.41257       15.038627       1
       13667.859       144.98951       16.365300       1
       13691.301       115.76463       14.846144       1
       13714.743       129.04838       16.187999       1
       13738.186       124.74866       14.898362       1
       13761.628       135.56519       16.311989       1
       13785.070       121.49195       14.880110       1
       13808.512       138.15027       16.113252       1
       13831.954       125.28640       14.896045       1
       13855.396       122.09360       15.967629       1
       13878.838       114.67126       14.676739       1
       13902.280       131.75858       16.028521       1
       13925.723       123.26485       14.651373       1
       13949.165       131.25928       15.869326       1
       13972.607       118.82636       14.453821       1
       13996.049       123.44291       15.816515       1
       14019.491       115.72797       14.585779       1
       14042.933       125.82786       15.708617       1
       14066.375       118.33129       14.203055       1
       14089.817       114.40616       15.360644       1
       14113.259       124.25803       14.129411       1
       14136.702       145.20392       15.653058       1
       14160.144       126.73227       14.407720       1
       14183.586       128.22171       15.339359       1
       14207.028       133.63773       14.180243       1
       14230.470       117.45454       15.149177       1
       14253.912       124.63447       14.118871       1
       14277.354       123.04374       15.042407       1
       14300.796       125.58161       13.813260       1
       14324.239       127.59052       15.017309       1
       14347.681       128.78881       13.901489       1
       14371.123       132.18318       14.973887       1
       14394.565       125.22527       13.796810       1
       14418.007       146.50643       15.005593       1
       14441.449       138.40131       13.895828       1
       14464.891       131.40494       14.871149       1
       14488.333       125.16482       13.759850       1
       14511.775       156.22907       15.066273       1
       14535.218       119.79595       13.594810       1
       14558.660       136.22519       14.904912       1
       14582.102       128.72226       13.742797       1
       14605.544       134.89684       14.890039       1
       14628.986       118.88558       13.742603       1
       14652.428       131.73283       14.831288       1
       14675.870       125.35997       13.841111       1
       14699.312       129.74364       14.802100       1
       14722.755       120.62712       13.700847       1
       14746.197       140.34677       15.022965       1
       14769.639       121.36399       13.678542       1
       14793.081       131.46602       14.956439       1
       14816.523       131.56001       13.811633       1
       14839.965       146.97581       14.967830       1
       14863.407       121.97205       13.619020       1
       14886.849       134.49763       14.814562       1
       14910.291       112.35162       13.440815       1
       14933.734       131.82254       14.699286       1
       14957.176       139.69196       13.609518       1
       14980.618       129.09366       14.542166       1
       15004.060       137.59655       13.530015       1
       15027.502       118.78154       14.275831       1
       15050.944       118.73197       13.301162       1
       15074.386       121.03358       14.307919       1
       15097.828       131.52701       13.349323       1
       15121.271       135.96569       14.537174       1
       15144.713       144.57513       13.458901       1
       15168.155       129.86235       14.432467       1
       15191.597       135.76268       13.371942       1
       15215.039       118.19664       14.227196       1
       15238.481       114.01821       13.155292       1
       15261.923       135.44111       14.417951       1
       15285.365       116.25045       13.119658       1
       15308.807       126.35261       14.287017       1
       15332.250       128.11437       13.276743       1
       15355.692       137.70876       14.461294       1
       15379.134       131.78867       13.291347       1
       15402.576       131.58411       14.350761       1
       15426.018       154.80652       13.528751       1
       15449.460       122.43957       14.302127       1
       15472.902       128.69315       13.297314       1
       15496.344       133.74671       14.448655       1
       15519.787       123.23600       13.149070       1
       15543.229       127.28513       14.340732       1
       15566.671       128.96440       13.317316       1
       15590.113       126.61287       14.362564       1
       15613.555       132.90838       13.342316       1
       15636.997       119.13176       13.999175       1
       15660.439       135.52177       13.330070       1
       15683.881       125.24393       14.061403       1
       15707.324       101.72884       11.622357       1
       15730.766       127.01216       14.242180       1
       15754.208       114.46038       13.014754       1
       15777.650       123.95320       14.126938       1
       15801.092       112.79971       12.949668       1
       15824.534       111.69216       13.922530       1
       15847.976       114.58008       12.951835       1
       15871.418       128.31743       14.138660       1
       15894.860       119.09046       13.067004       1
       15918.303       139.65761       14.322199       1
       15941.745       112.67601       12.992989       1
       15965.187       118.21149       14.149578       1
       15988.629       134.75798       13.248120       1
       16012.071       118.77588       14.131133       1
       16035.513       128.69157       13.222543       1
       16058.955       126.19103       14.181720       1
       16082.397       133.05215       13.226222       1
       16105.840       91.166119       12.015173       1
       16129.282       123.72344       13.152830       1
       16152.724       115.03923       14.210984       1
       16176.166       109.78269       13.104541       1
       16199.608       114.46751       14.231871       1
       16223.050       114.15962       13.240479       1
       16246.492       121.92693       14.478791       1
       16269.934       124.56358       13.404777       1
       16293.376       115.70696       14.392996       1
       16316.819       123.44197       13.508401       1
       16340.261       135.98781       14.763747       1
       16363.703       135.82799       13.641896       1
       16387.145       132.42163       14.768690       1
       16410.587       131.09365       13.604718       1
       16434.029       126.49341       14.711803       1
       16457.471       117.50791       13.485594       1
       16480.913       113.70653       14.752485       1
       16504.356       130.11417       13.828818       1
       16527.798       119.51376       15.156605       1
       16551.240       128.02765       14.315999       1
       16574.682       113.88426       15.845918       1
       16598.124       131.05963       15.332843       1
       16621.566       111.62242       17.253109       1
       16645.008       128.91338       17.107476       1
       16668.450       97.622891       19.480264       1
       16691.892       129.62009       19.928304       1
       16715.335       102.36480       23.283056       1
       16738.777       129.42443       24.170173       1
       16762.219       114.70952       29.251793       0
       16785.661       124.24988       30.522365       0
       16809.103       153.62797       38.038169       0
       16832.545       102.33087       39.260357       0
       16855.987       79.334452       48.228906       0
       16879.429       171.04758       51.136081       0
       16902.872       99.013733       60.957905       0
       16926.314       165.41043       63.760637       0
       16949.756       194.38792       77.549014       0
       16973.198       150.85274       79.062710       0
       16996.640       18.677419       94.342110       0
       17020.082       113.59270       98.251539       0
       17043.524       179.13588       119.01773       0
       17066.966       194.58423       121.98742       0
       17090.408       191.88317       146.41527       0
       17113.851      -15.124987       107.91268       0
       17137.293       99.246149       182.49854       0
       17160.735      -17.934063       189.56474       0
       17184.177       145.47582       268.80865       0
       17207.619       321.79912       255.86804       0
       17231.061       509.43732       320.85748       0
       17254.503       152.98810       332.84437       0
       17277.945       851.00413       415.80486       0
       17301.388      -71.940644       418.51687       0
       17324.830      -670.36102       494.98092       0
       17348.272       226.77997       511.47873       0
       17371.714      -422.05713       606.10014       0
       17395.156      -181.08538       434.30938       0
       17418.598      -658.62996       752.94417       0
       17442.040       736.08553       773.75833       0
       17465.482       529.98560       910.97099       0
       17488.925       56.882998       937.62807       0
       17512.367       197.27966       1176.4829       0
       17535.809       608.26996       1335.6495       0
       17559.251      -1110.7443       1852.6330       0
