#WAVELENGTH FLUX ERROR MASK
       7516.5909      -2253.6857       14157.253       0
       7528.8901       2033.2130       9705.9156       0
       7541.1892       5899.3395       10065.935       0
       7553.4884      -4262.4840       6311.8135       0
       7565.7876       3966.3447       6273.4013       0
       7578.0867       2930.2496       4089.0070       0
       7590.3859       2472.3001       4036.0065       0
       7602.6851       1803.4747       2687.8629       0
       7614.9842       162.18744       2809.7261       0
       7627.2834       1944.1356       1947.3816       0
       7639.5825       648.05410       2085.5616       0
       7651.8817      -615.42202       1428.9164       0
       7664.1809       830.11790       1518.8176       0
       7676.4800       1553.1362       1017.2202       0
       7688.7792       1846.5259       1067.1761       0
       7701.0784       865.41010       708.05804       0
       7713.3775       708.80254       774.36029       0
       7725.6767       660.57286       673.87623       0
       7737.9759       683.55718       614.57693       0
       7750.2750       248.68004       431.06045       0
       7762.5742       1019.4234       501.90270       0
       7774.8733       327.34815       365.99531       0
       7787.1725       251.85895       416.28485       0
       7799.4717       215.00217       328.89643       0
       7811.7708       326.34543       343.01395       0
       7824.0700       134.75891       246.48917       0
       7836.3692       5.2100491       274.91651       0
       7848.6683       163.57849       198.26792       0
       7860.9675       172.64376       225.34254       0
       7873.2666       106.35092       217.79437       0
       7885.5658       183.05545       194.93756       0
       7897.8650       109.48797       141.49237       0
       7910.1641       299.54983       168.20991       0
       7922.4633       200.47240       126.08733       0
       7934.7625       102.37990       149.55988       0
       7947.0616       240.91231       115.21383       0
       7959.3608       79.973911       136.16535       0
       7971.6600       49.631638       103.53462       0
       7983.9591       16.672165       125.00210       0
       7996.2583       49.616949       96.273155       0
       8008.5574       63.490251       117.10917       0
       8020.8566       118.53545       91.072138       0
       8033.1558       100.96158       110.39218       0
       8045.4549       122.97579       86.248293       0
       8057.7541       136.87620       107.07673       0
       8070.0533       73.971089       83.339248       0
       8082.3524       260.66420       104.20401       0
       8094.6516       101.69420       80.792518       0
       8106.9508       141.86021       99.682265       0
       8119.2499       116.01111       77.391837       0
       8131.5491       158.12906       95.870603       0
       8143.8482       146.32599       75.468154       0
       8156.1474       110.22133       92.488183       1
       8168.4466       88.281034       72.167651       1
       8180.7457       83.296272       88.486155       1
       8193.0449       113.62461       69.771078       1
       8205.3441       83.245289       84.772134       1
       8217.6432       48.047290       66.546141       1
       8229.9424       60.732007       81.305663       1
       8242.2415       32.560479       63.169334       1
       8254.5407       113.24052       77.780486       1
       8266.8399       54.771480       63.279310       1
       8279.1390       121.68450       73.932175       1
       8291.4382       77.974367       59.521721       1
       8303.7374       81.061594       70.301284       1
       8316.0365       102.34314       55.177828       1
       8328.3357       66.030851       67.466515       1
       8340.6349       106.43849       53.461860       1
       8352.9340       86.001030       65.994146       1
       8365.2332       75.387695       51.865451       1
       8377.5323       127.83951       64.376356       1
       8389.8315       82.062369       53.022150       1
       8402.1307       100.29802       64.959957       1
       8414.4298       110.84789       51.763508       1
       8426.7290       122.16159       63.070245       1
       8439.0282       77.349578       50.034442       1
       8451.3273       75.134031       60.464689       1
       8463.6265       84.561427       48.329386       1
       8475.9257       61.862600       59.007512       1
       8488.2248       60.872367       46.906716       1
       8500.5240       79.220371       57.620655       1
       8512.8231       127.67290       46.389302       1
       8525.1223       78.478464       55.967812       1
       8537.4215       119.30479       45.418352       1
       8549.7206       98.486845       55.675929       1
       8562.0198       125.84498       44.788185       1
       8574.3190       146.71214       55.363636       1
       8586.6181       89.580818       44.301412       1
       8598.9173       116.61474       54.880012       1
       8611.2164       94.465164       43.929322       1
       8623.5156       119.40062       56.463714       1
       8635.8148       78.617279       43.468585       1
       8648.1139       157.70755       54.279132       1
       8660.4131       89.305225       43.004034       1
       8672.7123       123.09239       52.730147       1
       8685.0114       131.35112       42.069951       1
       8697.3106       61.461445       50.572507       1
       8709.6098       116.45675       40.488050       1
       8721.9089       96.437451       48.973142       1
       8734.2081       108.26507       38.956646       1
       8746.5072       103.11455       47.395396       1
       8758.8064       94.154530       38.347404       1
       8771.1056       99.158994       46.406975       1
       8783.4047       97.668404       37.041395       1
       8795.7039       147.64205       45.986302       1
       8808.0031       103.70671       39.707903       1
       8820.3022       157.12849       45.232073       1
       8832.6014       77.345106       35.641813       1
       8844.9006       26.936924       34.691126       1
       8857.1997       95.520283       34.957283       1
       8869.4989       65.114483       42.605904       1
       8881.7980       58.861238       33.910746       1
       8894.0972       57.081016       41.643722       1
       8906.3964       89.816160       33.675566       1
       8918.6955       81.872482       41.294562       1
       8930.9947       82.690499       33.195531       1
       8943.2939       51.499953       39.990952       1
       8955.5930       92.866174       33.366423       1
       8967.8922       88.391518       39.732957       1
       8980.1913       106.47276       32.008576       1
       8992.4905       91.788025       39.121247       1
       9004.7897       67.886968       31.169254       1
       9017.0888       79.225062       38.526264       1
       9029.3880       92.862382       31.121324       1
       9041.6872       87.899936       38.412768       1
       9053.9863       73.100087       30.907301       1
       9066.2855       104.84775       38.278549       1
       9078.5847       76.949420       30.420582       1
       9090.8838       51.431425       36.905298       1
       9103.1830       57.617734       29.826729       1
       9115.4821       77.891203       36.524907       1
       9127.7813       97.727602       29.560270       1
       9140.0805       116.91186       36.149395       1
       9152.3796       108.64603       28.981599       1
       9164.6788       128.22540       35.493327       1
       9176.9780       74.158778       28.365177       1
       9189.2771       63.335866       34.436707       1
       9201.5763       81.311227       28.763013       1
       9213.8755       123.16084       34.418712       1
       9226.1746       102.83129       28.352301       1
       9238.4738       108.52242       33.795692       1
       9250.7729       76.027032       26.981154       1
       9263.0721       105.92901       33.227405       1
       9275.3713       98.804455       26.896029       1
       9287.6704       119.44686       31.742323       1
       9299.9696       134.28614       25.561863       1
       9312.2688       132.03130       31.623753       1
       9324.5679       130.17125       25.159434       1
       9336.8671       156.17922       31.545621       1
       9349.1662       136.67528       25.050701       1
       9361.4654       134.03615       30.931459       1
       9373.7646       140.72650       24.823343       1
       9386.0637       129.71030       30.762487       1
       9398.3629       154.23404       24.681039       1
       9410.6621       153.16813       30.501651       1
       9422.9612       145.39910       24.199270       1
       9435.2604       155.95732       30.178515       1
       9447.5596       181.33973       24.471898       1
       9459.8587       143.84364       29.703071       1
       9472.1579       185.04386       23.896981       1
       9484.4570       176.13186       29.619744       1
       9496.7562       164.69366       23.523905       1
       9509.0554       181.73352       29.463758       1
       9521.3545       177.47885       23.344047       1
       9533.6537       190.67475       29.087019       1
       9545.9529       176.82804       23.182832       1
       9558.2520       170.43768       28.422269       1
       9570.5512       201.82212       23.113659       1
       9582.8504       136.05756       23.815222       1
       9595.1495       176.75832       22.747451       1
       9607.4487       111.99565       21.866724       1
       9619.7478       161.06035       22.309742       1
       9632.0470       147.70817       27.667255       1
       9644.3462       158.70106       22.209690       1
       9656.6453       133.44194       23.232832       1
       9668.9445       147.05909       21.938046       1
       9681.2437       145.00743       27.263433       1
       9693.5428       167.12036       21.949842       1
       9705.8420       167.43793       27.258152       1
       9718.1411       143.56636       21.514758       1
       9730.4403       124.43161       26.493752       1
       9742.7395       131.36904       21.337344       1
       9755.0386       137.60321       26.483656       1
       9767.3378       120.87483       26.122120       1
       9779.6370       140.04599       26.289367       1
       9791.9361       120.63676       20.928568       1
       9804.2353       120.85582       26.061176       1
       9816.5345       125.45823       20.675157       1
       9828.8336       129.27971       12764309.       1
       9841.1328       125.92634       20.650206       1
       9853.4319       145.11390       25.977625       1
       9865.7311       146.82132       20.719173       1
       9878.0303       145.99766       25.744166       1
       9890.3294       128.42255       20.514403       1
       9902.6286       131.70400       25.507599       1
       9914.9278       138.89250       20.347408       1
       9927.2269       132.51292       25.570835       1
       9939.5261       138.82627       20.475298       1
       9951.8253       118.79527       25.473836       1
       9964.1244       137.69470       20.807407       1
       9976.4236       111.74532       24.900070       1
       9988.7227       129.95488       19.883866       1
       10001.022       140.47166       24.985794       1
       10013.321       126.13727       19.780079       1
       10025.620       173.82397       25.119971       1
       10037.919       203.65370       20.276901       1
       10050.219       271.95367       25.942163       1
       10062.518       329.43497       21.332339       1
       10074.817       405.04676       27.417226       1
       10087.116       671.10044       24.427914       1
       10099.415       459.33281       29.661169       1
       10111.714       918.80056       27.365845       1
       10124.014       347.84296       30.537093       1
       10136.313       610.77823       26.516257       1
       10148.612       68.717876       28.266468       1
       10160.911       138.48824       22.829899       1
       10173.210       70.214988       26.753960       1
       10185.509       125.32124       21.492047       1
       10197.809       110.84154       25.595941       1
       10210.108       154.09165       20.618411       1
       10222.407       165.64743       25.135262       1
       10234.706       163.40239       20.119256       1
       10247.005       140.48818       24.456249       1
       10259.304       174.69767       19.788071       1
       10271.603       186.22721       24.422319       1
       10283.903       205.28545       19.765359       1
       10296.202       172.95844       24.008265       1
       10308.501       181.76385       19.810501       1
       10320.800       170.90901       23.748898       1
       10333.099       189.85515       19.414858       1
       10345.398       194.41183       23.823747       1
       10357.698       201.53303       21.177232       1
       10369.997       159.89305       23.445300       1
       10382.296       182.14051       19.170978       1
       10394.595       163.32889       23.546556       1
       10406.894       183.65520       19.085857       1
       10419.193       179.39800       23.608711       1
       10431.493       188.11887       19.085519       1
       10443.792       186.66528       23.510582       1
       10456.091       202.08617       19.128718       1
       10468.390       189.76066       23.442087       1
       10480.689       179.91602       18.898412       1
       10492.988       191.92216       23.465305       1
       10505.288       175.20509       18.843670       1
       10517.587       167.30961       19.298678       1
       10529.886       189.26760       18.982942       1
       10542.185       176.06306       23.314715       1
       10554.484       196.80513       20.277118       1
       10566.783       189.86664       23.407175       1
       10579.083       210.19842       19.054151       1
       10591.382       170.81467       23.127835       1
       10603.681       220.11140       19.023117       1
       10615.980       172.69334       23.011111       1
       10628.279       157.03437       19.991637       1
       10640.578       132.13386       22.382889       1
       10652.878       147.58238       18.199838       1
       10665.177       157.70333       22.454180       1
       10677.476       156.30695       18.148282       1
       10689.775       138.72233       22.161595       1
       10702.074       140.31540       17.979986       1
       10714.373       143.17801       22.126353       1
       10726.673       134.29906       17.910235       1
       10738.972       133.12863       22.016006       1
       10751.271       143.30914       17.807075       1
       10763.570       131.80648       21.888440       1
       10775.869       161.05912       18.072673       1
       10788.168       131.91332       22.437996       1
       10800.468       133.61469       17.778118       1
       10812.767       154.44938       22.598017       1
       10825.066       135.48299       17.694108       1
       10837.365       155.49095       21.971526       1
       10849.664       155.69843       17.789501       1
       10861.963       145.74538       21.733174       1
       10874.262       148.51797       17.640076       1
       10886.562       121.52155       21.451148       1
       10898.861       124.30286       17.362892       1
       10911.160       122.95182       22.426260       1
       10923.459       145.49694       17.518331       1
       10935.758       136.90163       21.491981       1
       10948.057       143.83599       17.513284       1
       10960.357       113.26241       21.327445       1
       10972.656       143.52685       17.460390       1
       10984.955       141.42033       21.584740       1
       10997.254       137.32626       17.378571       1
       11009.553       103.72988       17.294705       1
       11021.852       143.34223       19.060701       1
       11034.152       137.70967       21.434016       1
       11046.451       137.91955       17.304038       1
       11058.750       120.07290       21.284064       1
       11071.049       214.24690       17.079842       1
       11083.348       185.85970       21.090550       1
       11095.647       218.15654       17.070563       1
       11107.947       210.16565       21.254376       1
       11120.246       210.36772       17.042632       1
       11132.545       207.87541       21.256862       1
       11144.844       214.24367       17.093850       1
       11157.143       203.61204       21.171337       1
       11169.442       193.72757       16.973526       1
       11181.742       208.97854       21.271638       1
       11194.041       230.57768       17.221428       1
       11206.340       197.59919       21.167844       0
       11218.639       211.20641       21.893818       0
       11230.938       191.58176       21.057700       0
       11243.237       204.70021       16.885478       0
       11255.537       203.47785       21.167582       0
       11267.836       218.65394       17.117895       0
       11280.135       191.48088       21.023052       0
       11292.434       184.05587       16.834812       0
       11304.733       211.97773       21.211375       0
       11317.032       200.69471       17.031288       0
       11329.332       157.84982       21.061762       0
       11341.631       196.60560       17.365871       0
       11353.930       177.92774       22.287051       0
       11366.229       188.81763       18.753988       0
       11378.528       165.31779       24.476538       0
       11390.827       195.68415       21.314971       0
       11403.127       200.24180       29.064821       0
       11415.426       192.28096       25.660691       0
       11427.725       200.85868       36.319354       0
       11440.024       231.97572       32.532489       0
       11452.323       243.00971       46.311217       0
       11464.622       251.51945       42.024872       0
       11476.922       194.96078       58.538602       0
       11489.221       271.30300       52.565071       0
       11501.520       200.90722       72.003050       0
       11513.819       233.19943       64.092099       0
       11526.118       77.610309       87.651471       0
       11538.417       141.30297       100.16260       0
       11550.716       340.96471       117.05867       0
       11563.016       240.01825       110.06216       0
       11575.315       117.90408       164.44543       0
       11587.614       265.38678       164.33524       0
       11599.913       316.26336       255.06287       0
       11612.212       185.39462       252.24054       0
       11624.511      -149.83089       385.31390       0
       11636.811       375.43584       378.91698       0
       11649.110      -426.32964       567.58652       0
       11661.409       375.05241       554.79947       0
       11673.708       305.29695       872.32752       0
       11686.007       900.75542       923.79798       0
       11698.306       830.36497       1481.8290       0
       11710.606       2272.2671       1558.5186       0
       11722.905       2308.7834       2562.1988       0
       11735.204       3775.0080       2629.4097       0
       11747.503       3669.3196       3764.4211       0
       11759.802       3357.3488       3164.9077       0
       11772.101       252.82656       3910.1152       0
       11784.401       2221.7291       3072.3236       0
       11796.700       1466.9079       3706.0197       0
       11808.999       1201.5694       2983.9716       0
       11821.298      -3461.2915       3864.1836       0
       11833.597       3836.7548       3557.3733       0
       11845.896       4183.5303       5001.0274       0
       11858.196       6809.8030       4753.8414       0
       11870.495       13094.203       7065.0425       0
       11882.794       7525.0873       6673.2677       0
       11895.093       7366.0969       9502.1397       0
       11907.392       6680.6811       8740.2092       0
       11919.691       4519.3261       12448.404       0
       11931.991       153.86402       11856.659       0
