#WAVELENGTH FLUX ERROR MASK
       10213.423      -995.84888       2665.1639       0
       10236.393      -840.96231       2622.1179       0
       10259.363       498.60480       2177.8881       0
       10282.333       1028.5966       1947.9104       0
       10305.302      -63.347204       1622.0326       0
       10328.272       639.70056       1494.2176       0
       10351.242      -200.88407       1289.8836       0
       10374.212       261.95060       1239.6971       0
       10397.181      -839.40991       1066.5882       0
       10420.151       132.19070       1017.4082       0
       10443.121       343.73202       861.90854       0
       10466.091       211.54640       766.69448       0
       10489.060       578.60737       625.05346       0
       10512.030       664.96751       548.34563       0
       10535.000       126.90215       445.20276       0
       10557.970       233.52748       402.37368       0
       10580.939       316.27979       340.19524       0
       10603.909       32.441529       314.63904       0
       10626.879       387.65990       274.86008       0
       10649.849       330.38068       256.38599       0
       10672.818       129.13018       199.35963       0
       10695.788       202.78229       197.20074       0
       10718.758       189.55101       159.55624       0
       10741.728       215.69296       139.87967       0
       10764.697       182.17861       111.16784       0
       10787.667       87.009691       88.377533       0
       10810.637       191.99211       79.972043       0
       10833.607       90.522259       71.596870       0
       10856.576       143.58306       61.238659       0
       10879.546       68.205387       56.640478       0
       10902.516       129.05828       51.190822       0
       10925.486       138.95956       49.782990       0
       10948.455       130.53331       44.290569       0
       10971.425       108.20538       43.263968       0
       10994.395       125.47602       39.026132       0
       11017.365       102.80052       37.685950       1
       11040.334       108.76646       33.799352       1
       11063.304       133.94175       33.421483       1
       11086.274       115.69368       30.317240       1
       11109.243       118.22262       30.047953       1
       11132.213       133.85312       28.282586       1
       11155.183       102.78200       28.388904       1
       11178.153       132.82834       26.966050       1
       11201.122       114.72224       27.319671       1
       11224.092       121.39396       26.103302       1
       11247.062       101.07922       26.642758       1
       11270.032       124.61189       25.621120       1
       11293.001       103.50456       26.210055       1
       11315.971       122.08946       25.471174       1
       11338.941       118.02766       25.766179       1
       11361.911       110.80759       24.472622       1
       11384.880       123.07021       25.379698       1
       11407.850       82.603268       21.925275       1
       11430.820       111.61452       24.657559       1
       11453.790       107.28227       23.740593       1
       11476.759       86.609859       24.381132       1
       11499.729       96.491721       23.035029       1
       11522.699       101.81802       24.354749       1
       11545.669       101.82956       23.194261       1
       11568.638       114.02248       24.158840       1
       11591.608       113.28233       23.118744       1
       11614.578       93.247339       23.787688       1
       11637.548       110.89227       22.722906       1
       11660.517       49.083512       16.447881       1
       11683.487       107.10422       22.181721       1
       11706.457       84.926613       18.837079       1
       11729.427       114.72463       21.648183       1
       11752.396       88.044357       20.312167       1
       11775.366       120.93011       21.399850       1
       11798.336       112.57211       21.947806       1
       11821.306       128.98393       20.965777       1
       11844.275       98.268893       21.310279       1
       11867.245       99.194981       20.367842       1
       11890.215       97.254752       21.022608       1
       11913.185       109.50318       20.197334       1
       11936.154       102.62672       20.842505       1
       11959.124       111.21666       19.892505       1
       11982.094       98.724859       20.438815       1
       12005.064       97.781414       19.452242       1
       12028.033       104.90408       20.180898       1
       12051.003       108.95153       19.301350       1
       12073.973       92.243157       19.933960       1
       12096.943       103.65038       19.160109       1
       12119.912       68.130850       17.895675       1
       12142.882       98.732954       18.808442       1
       12165.852       106.15835       19.636401       1
       12188.822       116.62757       18.707880       1
       12211.791       106.98576       19.331889       1
       12234.761       89.845918       18.377777       1
       12257.731       99.311322       19.057117       1
       12280.700       99.288620       18.279992       1
       12303.670       90.977894       18.773720       1
       12326.640       108.24678       18.118085       1
       12349.610       101.32489       18.675006       1
       12372.579       94.201780       17.770798       1
       12395.549       104.24339       18.556115       1
       12418.519       104.55276       17.733458       1
       12441.489       97.259933       18.294812       1
       12464.458       100.49410       17.809015       1
       12487.428       86.824940       17.994455       1
       12510.398       123.64148       18.001405       1
       12533.368       103.32942       18.019151       1
       12556.337       116.79946       17.837717       1
       12579.307       95.411530       17.875969       1
       12602.277       117.87033       17.693185       1
       12625.247       95.502377       17.756002       1
       12648.216       117.40126       17.507455       1
       12671.186       102.69598       17.704139       1
       12694.156       102.99931       17.320109       1
       12717.126       97.072811       17.472077       1
       12740.095       111.94089       17.187785       1
       12763.065       94.455488       17.182484       1
       12786.035       106.98202       16.863305       1
       12809.005       90.407153       16.947310       1
       12831.974       97.492749       16.672645       1
       12854.944       88.437259       16.833435       1
       12877.914       97.867939       16.535867       1
       12900.884       104.27065       16.863997       1
       12923.853       107.43185       16.530047       1
       12946.823       96.690383       16.572949       1
       12969.793       105.72829       16.289973       1
       12992.763       99.293524       16.419111       1
       13015.732       103.61838       17.478246       1
       13038.702       95.708196       16.222333       1
       13061.672       106.89016       16.591780       1
       13084.642       83.245942       15.935401       1
       13107.611       108.93513       15.887100       1
       13130.581       96.752698       16.011563       1
       13153.551       103.40180       15.492848       1
       13176.521       96.653964       15.792562       1
       13199.490       86.703608       15.122506       1
       13222.460       82.303881       15.291773       1
       13245.430       78.830471       13.858756       1
       13268.400       89.871715       15.434083       1
       13291.369       103.89735       15.308399       1
       13314.339       87.122048       15.316701       1
       13337.309       96.754668       15.060071       1
       13360.278       88.714261       15.320960       1
       13383.248       92.661613       4019814.2       1
       13406.218       100.54525       15.238311       1
       13429.188       102.72904       15.006269       1
       13452.157       83.699599       14.970777       1
       13475.127       98.539879       14.866901       1
       13498.097       96.008274       14.990877       1
       13521.067       89.342967       14.616034       1
       13544.036       94.379542       14.845132       1
       13567.006       101.81936       14.700648       1
       13589.976       86.624808       14.799325       1
       13612.946       88.573603       14.465560       1
       13635.915       72.608583       13.526149       1
       13658.885       97.967416       14.562713       1
       13681.855       99.509671       14.841040       1
       13704.825       93.004243       14.586332       1
       13727.794       90.080289       14.846334       1
       13750.764       85.857979       14.555540       1
       13773.734       81.329668       14.804318       1
       13796.704       93.123296       14.585146       1
       13819.673       88.665785       14.800350       1
       13842.643       80.523787       14.364631       1
       13865.613       78.309606       14.669442       1
       13888.583       84.501874       14.439053       1
       13911.552       89.937363       14.763996       1
       13934.522       91.305838       14.453592       1
       13957.492       86.513374       14.635651       1
       13980.462       76.278472       13.034994       1
       14003.431       86.301535       14.530376       1
       14026.401       91.420639       14.253629       1
       14049.371       71.350083       12.984032       1
       14072.341       86.891497       14.019854       1
       14095.310       90.632232       14.308719       1
       14118.280       93.360937       13.975313       1
       14141.250       87.048751       14.186439       1
       14164.220       95.670299       3720322.2       1
       14187.189       82.111100       14.165558       1
       14210.159       83.853740       13.779861       1
       14233.129       83.237700       14.007815       1
       14256.099       84.769279       13.777340       1
       14279.068       82.553225       13.893829       1
       14302.038       86.887443       13.668552       1
       14325.008       86.389865       13.780020       1
       14347.978       76.065938       13.461184       1
       14370.947       75.948916       13.673293       1
       14393.917       83.349441       13.526914       1
       14416.887       77.690133       13.688842       1
       14439.856       72.330075       12.465563       1
       14462.826       76.390577       13.722277       1
       14485.796       88.999937       13.565068       1
       14508.766       72.097030       12.470471       1
       14531.735       81.958981       13.498516       1
       14554.705       86.594612       13.759485       1
       14577.675       84.971793       13.490845       1
       14600.645       83.343378       13.768368       1
       14623.614       80.898770       13.487421       1
       14646.584       82.626496       13.799516       1
       14669.554       65.125329       12.361690       1
       14692.524       83.559295       13.791617       1
       14715.493       82.987569       13.574576       1
       14738.463       79.472271       13.761531       1
       14761.433       83.312122       13.604032       1
       14784.403       71.283353       13.648110       1
       14807.372       68.530033       13.387685       1
       14830.342       69.302909       13.680313       1
       14853.312       81.489335       13.482980       1
       14876.282       73.772444       13.578966       1
       14899.251       80.470408       13.406974       1
       14922.221       76.273272       13.513845       1
       14945.191       73.421725       13.209222       1
       14968.161       84.611344       13.564796       1
       14991.130       79.672321       13.196194       1
       15014.100       74.089105       13.341200       1
       15037.070       69.839040       13.019304       1
       15060.040       72.569429       13.398919       1
       15083.009       81.502049       13.188488       1
       15105.979       78.712170       13.455150       1
       15128.949       78.809808       12.917876       1
       15151.919       77.807373       13.354937       1
       15174.888       79.597295       12.916059       1
       15197.858       70.618983       12.290073       1
       15220.828       80.439577       12.892444       1
       15243.798       75.949898       13.288046       1
       15266.767       84.893387       12.889646       1
       15289.737       76.829722       13.377068       1
       15312.707       76.743561       12.777934       1
       15335.677       83.473692       13.427464       1
       15358.646       82.339756       12.893303       1
       15381.616       79.784334       13.436381       1
       15404.586       76.577435       12.854432       1
       15427.556       83.410333       13.484777       1
       15450.525       90.186011       13.008797       1
       15473.495       99.502706       13.623329       1
       15496.465       99.130954       13.010444       1
       15519.434       90.685806       13.555881       1
       15542.404       92.637212       13.038655       1
       15565.374       87.354431       13.523877       1
       15588.344       81.079957       12.986465       1
       15611.313       82.884846       13.517666       1
       15634.283       80.799910       12.891401       1
       15657.253       54.005643       11.017852       1
       15680.223       70.898050       12.772231       1
       15703.192       76.360677       13.253280       1
       15726.162       80.731273       12.717742       1
       15749.132       81.318300       13.245777       1
       15772.102       77.342054       12.593983       1
       15795.071       81.286596       13.205660       1
       15818.041       73.484918       12.615298       1
       15841.011       78.141516       13.216871       1
       15863.981       69.107784       12.630545       1
       15886.950       82.124446       13.272413       1
       15909.920       74.362927       12.747534       1
       15932.890       81.766135       13.326309       1
       15955.860       75.970381       12.742377       1
       15978.829       83.480414       13.315768       1
       16001.799       74.342270       12.781698       1
       16024.769       77.870216       13.363855       1
       16047.739       77.560634       12.786615       1
       16070.708       67.764218       12.238641       1
       16093.678       74.953240       12.745978       1
       16116.648       41.002713       10.877689       1
       16139.618       73.919515       12.800028       1
       16162.587       81.642018       13.465079       1
       16185.557       81.966816       12.951672       1
       16208.527       73.029059       13.477740       1
       16231.497       78.980519       13.040140       1
       16254.466       79.014658       13.653530       1
       16277.436       80.756636       13.093189       1
       16300.406       77.290127       13.696520       1
       16323.376       78.623172       13.157243       1
       16346.345       81.895229       13.758722       1
       16369.315       78.665136       13.169648       1
       16392.285       74.214355       13.765951       1
       16415.255       80.513474       13.200326       1
       16438.224       75.914974       13.814983       1
       16461.194       73.970083       13.289790       1
       16484.164       70.421642       13.933771       1
       16507.134       66.805604       13.495322       1
       16530.103       71.539710       14.460053       1
       16553.073       63.590601       14.151931       1
       16576.043       69.890396       15.531932       1
       16599.012       68.548337       15.537202       1
       16621.982       64.623171       17.189213       1
       16644.952       71.807834       17.822914       1
       16667.922       66.699120       20.141971       1
       16690.891       82.392449       21.273525       1
       16713.861       74.249944       24.521301       1
       16736.831       76.598906       26.453994       1
       16759.801       86.021784       31.327541       0
       16782.770       58.493301       33.731604       0
       16805.740       80.439630       40.247923       0
       16828.710       43.653244       43.413731       0
       16851.680       71.111728       51.529850       0
       16874.649       64.538765       55.234289       0
       16897.619       110.09629       64.784609       0
       16920.589       106.02699       69.077321       0
       16943.559      -28.697208       79.029701       0
       16966.528       27.241870       85.251564       0
       16989.498       49.490877       99.370820       0
       17012.468       39.285718       106.18517       0
       17035.438      -15.036374       122.59060       0
       17058.407       27.272623       130.32622       0
       17081.377       93.425132       152.08200       0
       17104.347       32.333799       161.90581       0
       17127.317       68.286349       192.09432       0
       17150.286      -51.138211       209.91208       0
       17173.256       70.176466       252.71948       0
       17196.226      -90.760387       277.68018       0
       17219.196       5.5053926       348.59702       0
       17242.165       44.188636       359.55987       0
       17265.135       83.510165       420.20350       0
       17288.105      -35.180854       448.42038       0
       17311.075       72.953536       515.27169       0
       17334.044      -223.37023       538.01488       0
       17357.014       315.60271       633.15998       0
