#WAVELENGTH FLUX ERROR MASK
       10228.032       899.24792       2480.7353       0
       10250.906       3788.6950       2187.4854       0
       10273.781       1162.0885       1559.1810       0
       10296.656       2061.9421       1636.5609       0
       10319.531       103.93931       1403.0985       0
       10342.406       2543.5973       1292.9452       0
       10365.280       1039.7676       1165.8527       0
       10388.155       147.08767       1066.6621       0
       10411.030       364.17174       966.37864       0
       10433.905       207.79770       863.71331       0
       10456.780       809.06789       755.99232       0
       10479.654       686.08888       643.66893       0
       10502.529       784.51652       541.22347       0
       10525.404       434.01306       461.68051       0
       10548.279       557.79932       396.24075       0
       10571.154       329.80983       342.82401       0
       10594.028       331.10681       306.83845       0
       10616.903       323.31107       279.71945       0
       10639.778       417.63058       249.65624       0
       10662.653       501.56575       223.06770       0
       10685.528       220.02963       193.92077       0
       10708.402       270.23082       169.69134       0
       10731.277       227.66181       140.66245       0
       10754.152       368.89841       118.66025       0
       10777.027       231.78743       98.722709       0
       10799.902       257.21800       84.180223       0
       10822.776       166.84976       71.555185       0
       10845.651       109.05752       62.529383       0
       10868.526       146.40871       56.270982       0
       10891.401       103.03063       51.321453       0
       10914.276       174.26389       48.222470       0
       10937.151       167.30078       45.484518       0
       10960.025       168.32728       42.433021       0
       10982.900       136.07593       39.356125       0
       11005.775       129.92500       36.677590       1
       11028.650       150.42475       34.651486       1
       11051.525       153.49632       32.570090       1
       11074.399       141.62688       30.583711       1
       11097.274       142.69704       29.413375       1
       11120.149       99.146699       27.818641       1
       11143.024       137.98582       27.166738       1
       11165.899       141.08304       26.234303       1
       11188.773       139.63281       26.285463       1
       11211.648       105.82246       25.411867       1
       11234.523       135.60923       25.651721       1
       11257.398       124.87372       25.219531       1
       11280.273       155.53857       25.305511       1
       11303.147       120.20315       24.649156       1
       11326.022       110.37208       24.817838       1
       11348.897       123.84979       24.331680       1
       11371.772       115.61191       23.713102       1
       11394.647       101.54507       23.658643       1
       11417.521       132.71337       23.804717       1
       11440.396       112.75616       23.536869       1
       11463.271       140.73564       23.565794       1
       11486.146       126.32927       23.179055       1
       11509.021       103.53809       22.992318       1
       11531.895       119.99339       22.851830       1
       11554.770       126.81609       23.226009       1
       11577.645       100.66875       22.741515       1
       11600.520       144.15131       22.749378       1
       11623.395       122.08625       22.641904       1
       11646.269       115.50759       22.352340       1
       11669.144       108.95074       22.398017       1
       11692.019       117.42400       21.864707       1
       11714.894       109.89801       21.554213       1
       11737.769       98.032089       21.139326       1
       11760.644       96.057749       20.929431       1
       11783.518       151.42814       21.288142       1
       11806.393       106.89205       20.648109       1
       11829.268       109.17696       20.280406       1
       11852.143       119.78060       20.412330       1
       11875.018       111.04163       20.210196       1
       11897.892       113.59935       19.990848       1
       11920.767       117.73881       20.047663       1
       11943.642       117.98600       19.848858       1
       11966.517       109.48464       19.666738       1
       11989.392       131.52734       19.657564       1
       12012.266       92.755276       19.214951       1
       12035.141       101.02755       19.138035       1
       12058.016       109.26189       19.395262       1
       12080.891       89.667195       18.790724       1
       12103.766       113.11550       18.754859       1
       12126.640       117.39366       18.843626       1
       12149.515       101.13715       18.617697       1
       12172.390       122.77438       18.775207       1
       12195.265       98.833413       18.193953       1
       12218.140       115.87741       18.482610       1
       12241.014       114.81335       18.158969       1
       12263.889       86.806918       17.911651       1
       12286.764       99.472535       18.009358       1
       12309.639       98.146351       17.894547       1
       12332.514       105.98474       17.895983       1
       12355.388       101.28951       17.692983       1
       12378.263       100.51617       17.625822       1
       12401.138       129.24136       16.916561       1
       12424.013       126.60120       17.241786       1
       12446.888       109.54598       16.638047       1
       12469.762       125.68560       18.658384       1
       12492.637       93.375671       16.352991       1
       12515.512       121.73864       16.943510       1
       12538.387       117.96949       16.432668       1
       12561.262       92.212696       16.622881       1
       12584.136       114.94350       16.607945       1
       12607.011       104.78188       16.559477       1
       12629.886       112.79803       16.322452       1
       12652.761       127.45880       16.603444       1
       12675.636       110.69173       16.126459       1
       12698.511       95.587432       16.010523       1
       12721.385       91.896975       15.802763       1
       12744.260       51.953751       13.344444       1
       12767.135       111.87274       15.761682       1
       12790.010       103.45663       15.989120       1
       12812.885       92.365824       15.433607       1
       12835.759       105.01100       15.863736       1
       12858.634       124.88267       15.531143       1
       12881.509       109.48631       15.811018       1
       12904.384       109.38570       15.374423       1
       12927.259       102.69589       15.596789       1
       12950.133       101.77642       15.191113       1
       12973.008       91.066027       15.312605       1
       12995.883       102.44892       14.948570       1
       13018.758       70.934910       14.921816       1
       13041.633       96.100490       14.688169       1
       13064.507       42.673628       12.297893       1
       13087.382       97.649149       14.608246       1
       13110.257       96.280664       14.912700       1
       13133.132       90.235037       14.444987       1
       13156.007       102.26038       14.779625       1
       13178.881       98.576680       14.388044       1
       13201.756       94.915604       14.608184       1
       13224.631       87.495594       14.096345       1
       13247.506       91.463466       14.431118       1
       13270.381       90.127882       14.000527       1
       13293.255       82.535747       14.311262       1
       13316.130       87.239167       13.855778       1
       13339.005       84.487038       14.175512       1
       13361.880       101.26205       13.932469       1
       13384.755       92.640486       14.199922       1
       13407.629       76.291087       13.651006       1
       13430.504       95.645594       14.163306       1
       13453.379       86.413689       13.505735       1
       13476.254       89.184929       13.941466       1
       13499.129       96.387526       13.590880       1
       13522.004       91.663603       13.901838       1
       13544.878       106.83533       13.681610       1
       13567.753       83.362971       13.745923       1
       13590.628       92.317014       13.408503       1
       13613.503       96.789823       13.878747       1
       13636.378       88.831641       13.342595       1
       13659.252       90.557501       13.783273       1
       13682.127       82.848329       13.303366       1
       13705.002       88.075837       13.789930       1
       13727.877       78.757857       13.318828       1
       13750.752       86.079549       13.687541       1
       13773.626       87.743884       13.471607       1
       13796.501       88.312860       13.820462       1
       13819.376       88.167548       13.487974       1
       13842.251       99.344401       13.874000       1
       13865.126       88.466719       13.357893       1
       13888.000       100.38250       13.842353       1
       13910.875       85.437379       13.256272       1
       13933.750       96.643204       13.826218       1
       13956.625       99.461772       13.427233       1
       13979.500       107.20242       13.782852       1
       14002.374       134.95094       13.710540       1
       14025.249       123.99581       13.860325       1
       14048.124       168.19959       13.843928       1
       14070.999       224.08160       14.682560       1
       14093.874       255.61972       14.455473       1
       14116.748       238.90057       14.632796       1
       14139.623       179.17689       13.755027       1
       14162.498       174.75906       13.977345       1
       14185.373       133.31885       13.208207       1
       14208.248       119.32365       13.485733       1
       14231.122       119.79375       13.076097       1
       14253.997       117.10212       13.339533       1
       14276.872       109.61763       12.853578       1
       14299.747       101.17489       13.054940       1
       14322.622       95.252270       12.667592       1
       14345.497       102.77559       13.008737       1
       14368.371       101.04532       12.634732       1
       14391.246       94.809090       12.938161       1
       14414.121       109.53838       12.600673       1
       14436.996       107.22587       13.015762       1
       14459.871       106.90703       5083753.3       1
       14482.745       97.666619       12.873791       1
       14505.620       92.574806       12.525253       1
       14528.495       102.10064       12.929297       1
       14551.370       83.105492       12.454567       1
       14574.245       90.264397       12.771271       1
       14597.119       83.780572       12.370578       1
       14619.994       69.753852       12.614812       1
       14642.869       90.431246       12.476829       1
       14665.744       85.178158       12.704728       1
       14688.619       77.024754       12.389889       1
       14711.493       78.822373       12.698369       1
       14734.368       58.405890       12.134844       1
       14757.243       74.215325       12.663890       1
       14780.118       74.759598       12.342114       1
       14802.993       76.974018       13.529622       1
       14825.867       75.199739       12.366344       1
       14848.742       80.028452       12.746926       1
       14871.617       72.271917       12.292510       1
       14894.492       77.782339       12.614515       1
       14917.367       86.002232       12.263783       1
       14940.241       83.611903       12.551552       1
       14963.116       83.968167       12.175195       1
       14985.991       69.009121       12.268791       1
       15008.866       81.406258       12.118596       1
       15031.741       74.998585       12.320822       1
       15054.615       75.395124       12.048739       1
       15077.490       68.572757       12.306828       1
       15100.365       73.383453       11.967639       1
       15123.240       87.737532       12.417269       1
       15146.115       70.383723       11.960309       1
       15168.989       82.902596       12.366675       1
       15191.864       75.017244       12.631335       1
       15214.739       74.598639       12.581726       1
       15237.614       73.804662       12.571617       1
       15260.489       75.427246       12.577773       1
       15283.364       66.489785       12.522656       1
       15306.238       84.570948       12.725494       1
       15329.113       69.586818       12.506287       1
       15351.988       59.193144       12.403014       1
       15374.863       70.257345       12.516308       1
       15397.738       60.964349       12.408159       1
       15420.612       66.800671       12.514972       1
       15443.487       74.106585       12.519863       1
       15466.362       61.694236       12.489320       1
       15489.237       75.662105       12.624666       1
       15512.112       65.905920       12.566945       1
       15534.986       65.807116       12.556620       1
       15557.861       68.178936       12.629023       1
       15580.736       72.415393       12.640629       1
       15603.611       71.263483       12.602735       1
       15626.486       75.679581       12.637878       1
       15649.360       77.228067       12.672087       1
       15672.235       82.933983       12.713308       1
       15695.110       72.955601       12.538864       1
       15717.985       78.292198       12.582020       1
       15740.860       65.162600       12.438961       1
       15763.734       75.119696       12.489557       1
       15786.609       62.391183       12.324096       1
       15809.484       58.284152       12.231485       1
       15832.359       76.506452       12.439318       1
       15855.234       60.415076       12.235716       1
       15878.108       77.177569       12.453512       1
       15900.983       71.973888       12.361119       1
       15923.858       77.619720       12.440646       1
       15946.733       72.161324       12.355564       1
       15969.608       69.394158       12.393053       1
       15992.482       60.108912       12.297190       1
       16015.357       72.199372       12.414222       1
       16038.232       64.099428       12.239496       1
       16061.107       68.082479       12.405929       1
       16083.982       64.706571       12.269178       1
       16106.857       54.255566       12.214622       1
       16129.731       64.578711       12.291160       1
       16152.606       57.732045       12.164790       1
       16175.481       70.993976       12.404725       1
       16198.356       81.250531       12.607286       1
       16221.231       62.118488       12.437832       1
       16244.105       72.784830       12.569689       1
       16266.980       73.351905       12.565124       1
       16289.855       73.512195       12.647606       1
       16312.730       47.662940       12.363089       1
       16335.605       54.485787       12.501824       1
       16358.479       66.743389       12.618793       1
       16381.354       72.633833       12.744002       1
       16404.229       71.492825       12.668304       1
       16427.104       69.526965       12.734460       1
       16449.979       65.301260       12.666769       1
       16472.853       62.987349       12.687091       1
       16495.728       70.314447       12.852610       1
       16518.603       62.735735       12.792848       1
       16541.478       68.080610       13.088323       1
       16564.353       66.762856       13.405796       1
       16587.227       61.877178       13.752434       1
       16610.102       66.923319       14.275052       1
       16632.977       59.537730       14.946934       1
       16655.852       74.733651       16.073640       1
       16678.727       84.201496       17.257090       1
       16701.601       65.904587       18.670723       1
       16724.476       62.255479       20.285869       1
       16747.351       79.204874       22.812228       1
       16770.226       85.110625       25.430480       0
       16793.101       90.306915       28.902890       0
       16815.975       55.326972       32.297995       0
       16838.850       80.624382       36.987334       0
       16861.725       65.311688       41.827982       0
       16884.600       71.393401       47.383382       0
       16907.475       85.097474       52.804558       0
       16930.350       44.557319       58.578695       0
       16953.224       73.036629       65.342932       0
       16976.099       125.09263       73.608686       0
       16998.974       86.917025       81.199606       0
       17021.849       98.818186       91.392527       0
       17044.724       152.24143       101.01294       0
       17067.598       205.87742       113.07215       0
       17090.473      -108.66389       121.40706       0
       17113.348       175.34452       138.17565       0
       17136.223       94.275214       152.40542       0
       17159.098       62.995501       171.81564       0
       17181.972       223.25550       196.14505       0
       17204.847       175.03743       226.06552       0
       17227.722       272.48154       220.07878       0
       17250.597       378.46294       297.55887       0
       17273.472      -204.73111       276.48907       0
       17296.346      -27.180518       371.73143       0
       17319.221       217.78104       353.27165       0
       17342.096       389.41965       457.32797       0
